"Magnitude of transfer function Hx(f)= X(f)/U(f)"							
"Measured"		"Fitted without creep"		"Fitted"		"Imported"	
"Frequency [Hz]"	"[mm/V]"	"Frequency [Hz]"	"[mm/V]"	"Frequency [Hz]"	"[mm/V]"	"Frequency [Hz]"	"[mm/V]"
5.85938	1.17064	5.85938	0.993949	5.85938	1.11158		
7.32422	1.14441	7.32422	0.977426	7.32422	1.0752		
8.78906	1.10641	8.78906	0.958203	8.78906	1.03936		
10.2539	1.09249	10.2539	0.936745	10.2539	1.00387		
11.7188	0.919175	11.7188	0.913519	11.7188	0.968755		
13.1836	0.988538	13.1836	0.888968	13.1836	0.934172		
14.6484	0.82234	14.6484	0.863503	14.6484	0.900278		
16.1133	0.746862	16.1133	0.837487	16.1133	0.86722		
17.5781	0.883254	17.5781	0.811234	17.5781	0.835118		
19.043	0.780288	19.043	0.785008	19.043	0.804062		
20.5078	0.801952	20.5078	0.759024	20.5078	0.774114		
21.9727	0.826839	21.9727	0.733453	21.9727	0.745308		
23.4375	0.701128	23.4375	0.708428	23.4375	0.717659		
24.9023	0.689435	24.9023	0.684047	24.9023	0.691163		
26.3672	0.689765	26.3672	0.660381	26.3672	0.665803		
27.832	0.691066	27.832	0.637478	27.832	0.641554		
29.2969	0.57154	29.2969	0.615367	29.2969	0.61838		
30.7617	0.515826	30.7617	0.594061	30.7617	0.596244		
32.2266	0.557621	32.2266	0.573561	32.2266	0.575104		
33.6914	0.541007	33.6914	0.553862	33.6914	0.554918		
35.1563	0.500941	35.1563	0.534949	35.1563	0.53564		
36.6211	0.500404	36.6211	0.516802	36.6211	0.517228		
38.0859	0.519075	38.0859	0.499401	38.0859	0.49964		
39.5508	0.505834	39.5508	0.482718	39.5508	0.482833		
41.0156	0.456311	41.0156	0.466729	41.0156	0.466769		
42.4805	0.383185	42.4805	0.451405	42.4805	0.451408		
43.9453	0.436961	43.9453	0.436719	43.9453	0.436714		
45.4102	0.427079	45.4102	0.422644	45.4102	0.422653		
46.875	0.418244	46.875	0.409152	46.875	0.409192		
48.3398	0.419718	48.3398	0.396217	48.3398	0.396299		
49.8047	0.371511	49.8047	0.383814	49.8047	0.383946		
51.2695	0.352271	51.2695	0.371918	51.2695	0.372104		
52.7344	0.335471	52.7344	0.360505	52.7344	0.360748		
54.1992	0.342129	54.1992	0.349552	54.1992	0.349854		
55.6641	0.360829	55.6641	0.339037	55.6641	0.339397		
57.1289	0.313722	57.1289	0.32894	57.1289	0.329357		
58.5938	0.35398	58.5938	0.319241	58.5938	0.319712		
60.0586	0.293634	60.0586	0.309922	60.0586	0.310444		
61.5234	0.301483	61.5234	0.300964	61.5234	0.301534		
64.4531	0.301579	64.4531	0.284066	64.4531	0.284721		
65.918	0.305221	65.918	0.276094	65.918	0.276787		
67.3828	0.243953	67.3828	0.268422	67.3828	0.269148		
70.3125	0.255559	70.3125	0.25392	70.3125	0.254703		
71.7773	0.23197	71.7773	0.247065	71.7773	0.247871		
73.2422	0.224954	73.2422	0.240459	73.2422	0.241285		
76.1719	0.250017	76.1719	0.227947	76.1719	0.228804		
77.6367	0.226093	77.6367	0.222022	77.6367	0.222891		
80.5664	0.211138	80.5664	0.210785	80.5664	0.211669		
83.4961	0.177894	83.4961	0.200309	83.4961	0.2012		
84.9609	0.185102	84.9609	0.195336	84.9609	0.196228		
87.8906	0.183439	87.8906	0.185885	87.8906	0.186773		
90.8203	0.195143	90.8203	0.177047	90.8203	0.177927		
92.2852	0.177086	92.2852	0.172844	92.2852	0.173717		
95.2148	0.153239	95.2148	0.164837	95.2148	0.165696		
98.1445	0.163424	98.1445	0.157331	98.1445	0.158171		
101.074	0.179069	101.074	0.150286	101.074	0.151106		
104.004	0.145031	104.004	0.143668	104.004	0.144465		
106.934	0.148866	106.934	0.137444	106.934	0.138217		
111.328	0.141283	111.328	0.128786	111.328	0.129521		
114.258	0.132923	114.258	0.123427	114.258	0.124137		
117.188	0.135647	117.188	0.118371	117.188	0.119056		
120.117	0.120077	120.117	0.113598	120.117	0.114256		
124.512	0.114406	124.512	0.106923	124.512	0.107544		
127.441	0.10602	127.441	0.102772	127.441	0.103368		
131.836	0.100186	131.836	0.0969534	131.836	0.0975141		
134.766	0.0978786	134.766	0.0933256	134.766	0.0938633		
139.16	0.104635	139.16	0.0882285	139.16	0.088733		
143.555	0.0981042	143.555	0.0835102	143.555	0.0839832		
147.949	0.0871481	147.949	0.0791355	147.949	0.0795789		
152.344	0.0780764	152.344	0.0750733	152.344	0.0754887		
156.738	0.0837675	156.738	0.0712957	156.738	0.0716848		
161.133	0.0734654	161.133	0.0677776	161.133	0.0681422		
165.527	0.0688956	165.527	0.0644968	165.527	0.0648384		
169.922	0.0717783	169.922	0.0614331	169.922	0.0617532		
175.781	0.069246	175.781	0.0576551	175.781	0.0579487		
180.176	0.0529362	180.176	0.0550309	180.176	0.0553063		
186.035	0.0582549	186.035	0.0517842	186.035	0.0520371		
191.895	0.0531759	191.895	0.0487984	191.895	0.0490309		
197.754	0.0611171	197.754	0.0460473	197.754	0.0462612		
202.148	0.0416424	202.148	0.0441238	202.148	0.0443249		
209.473	0.047966	209.473	0.0411588	209.473	0.0413405		
215.332	0.0436125	215.332	0.0389831	215.332	0.0391507		
221.191	0.0386861	221.191	0.0369642	221.191	0.037119		
227.051	0.0406993	227.051	0.035088	227.051	0.0352311		
234.375	0.0360542	234.375	0.032924	234.375	0.033054		
241.699	0.0323738	241.699	0.0309413	241.699	0.0310595		
249.023	0.0303528	249.023	0.0291208	249.023	0.0292284		
254.883	0.0241158	254.883	0.0277698	254.883	0.0278698		
263.672	0.022873	263.672	0.0259015	263.672	0.0259912		
270.996	0.0283097	270.996	0.0244753	270.996	0.0245574		
278.32	0.026555	278.32	0.0231558	278.32	0.023231		
287.109	0.0253373	287.109	0.0216991	287.109	0.021767		
295.898	0.0242716	295.898	0.0203665	295.898	0.0204278		
303.223	0.0203562	303.223	0.019341	303.223	0.0193975		
313.477	0.0174613	313.477	0.0180218	313.477	0.0180723		
322.266	0.0204987	322.266	0.0169883	322.266	0.0170342		
331.055	0.0190033	331.055	0.016035	331.055	0.0160768		
341.309	0.0149095	341.309	0.0150139	341.309	0.0150515		
351.563	0.0172923	351.563	0.0140806	351.563	0.0141145		
361.816	0.0150353	361.816	0.0132257	361.816	0.0132563		
372.07	0.0133022	372.07	0.0124409	372.07	0.0124686		
382.324	0.0131091	382.324	0.0117192	382.324	0.0117443		
394.043	0.0124954	394.043	0.0109633	394.043	0.0109859		
405.762	0.0139132	405.762	0.0102734	405.762	0.0102936		
417.48	0.00903384	417.48	0.00964207	417.48	0.00966032		
429.199	0.0125005	429.199	0.00906326	429.199	0.00907975		
442.383	0.0101709	442.383	0.00846811	442.383	0.00848285		
455.566	0.00894004	455.566	0.00792582	455.566	0.00793903		
468.75	0.00998094	468.75	0.00743056	468.75	0.00744243		
481.934	0.00859919	481.934	0.00697726	481.934	0.00698796		
496.582	0.00745988	496.582	0.00651747	496.582	0.00652703		
511.23	0.00677874	511.23	0.00609879	511.23	0.00610736		
525.879	0.00567232	525.879	0.00571668	525.879	0.00572437		
541.992	0.00402178	541.992	0.00533386	541.992	0.00534071		
558.105	0.0057603	558.105	0.00498593	558.105	0.00499206		
574.219	0.00330744	574.219	0.00466896	574.219	0.00467445		
590.332	0.00512781	590.332	0.00437952	590.332	0.00438446		
607.91	0.0040545	607.91	0.0040917	607.91	0.0040961		
625.488	0.00505164	625.488	0.00382977	625.488	0.00383372		
644.531	0.00318931	644.531	0.0035719	644.531	0.00357541		
663.574	0.00228193	663.574	0.00333786	663.574	0.003341		
682.617	0.0019065	682.617	0.00312492	682.617	0.00312772		
701.66	0.00347495	701.66	0.0029307	701.66	0.00293322		
723.633	0.00295324	723.633	0.00272721	723.633	0.00272944		
744.141	0.0021277	744.141	0.00255492	744.141	0.00255693		
766.113	0.00101923	766.113	0.00238702	766.113	0.0023888		
788.086	0.00149356	788.086	0.00223441	788.086	0.002236		
811.523	0.00195375	811.523	0.00208652	811.523	0.00208794		
834.961	0.00236437	834.961	0.00195223	834.961	0.0019535		
859.863	0.000897797	859.863	0.0018227	859.863	0.00182384		
884.766	0.000897656	884.766	0.00170515	884.766	0.00170616		
911.133	0.000938	911.133	0.00159219	911.133	0.00159309		
937.5	0.00132277	937.5	0.00148967	937.5	0.00149048		
965.332	0.00146304	965.332	0.00139145	965.332	0.00139217		
993.164	0.00107608	993.164	0.00130229	993.164	0.00130294		
1022.46	0.00153677	1022.46	0.00121707	1022.46	0.00121764		
1051.76	0.00112145	1051.76	0.00113966	1051.76	0.00114017		
1082.52	0.0015724	1082.52	0.0010658	1082.52	0.00106626		
1114.75	0.00147042	1114.75	0.000995607	1114.75	0.000996014		
1146.97	0.00105072	1146.97	0.000931897	1146.97	0.00093226		
1180.66	0.000235816	1180.66	0.000871397	1180.66	0.000871721		
1215.82	0.000627153	1215.82	0.00081413	1215.82	0.000814418		
1250.98	0.00120545	1250.98	0.000762138	1250.98	0.000762396		
1287.6	0.00106125	1287.6	0.000712923	1287.6	0.000713153		
1325.68	0.000572403	1325.68	0.000666455	1325.68	0.00066666		
1365.23	0.000392242	1365.23	0.000622681	1365.23	0.000622863		
1404.79	0.00118982	1404.79	0.000582926	1404.79	0.000583089		
1445.8	0.000576154	1445.8	0.000545441	1445.8	0.000545587		
1488.28	0.000731313	1488.28	0.00051016	1488.28	0.00051029		
1532.23	0.000513791	1532.23	0.000477005	1532.23	0.000477121		
1576.17	0.000129975	1576.17	0.000446849	1576.17	0.000446953		
1623.05	0.000403077	1623.05	0.000417598	1623.05	0.00041769		
1669.92	9.41223e-005	1669.92	0.000391002	1669.92	0.000391084		
1719.73	0.000491571	1719.73	0.000365308	1719.73	0.000365382		
1769.53	0.000119799	1769.53	0.000341948	1769.53	0.000342013		
1822.27	9.91337e-005	1822.27	0.000319454	1822.27	0.000319512		
1875	0.000563765	1875	0.000298996	1875	0.000299048		
1930.66	4.60991e-005	1930.66	0.00027935	1930.66	0.000279396		
1986.33	0.000103329	1986.33	0.000261472	1986.33	0.000261513		
2044.92	0.000475777	2044.92	0.000244339	2044.92	0.000244376		
