"Spectrum I(f) of current at speaker terminals"					
"Signal lines"		"Noise + Distortions"		"Noise floor"	
"Frequency [Hz]"	"[dB]   0 dB = 1 A"	"Frequency [Hz]"	"[dB]   0 dB = 1 A"	"Frequency [Hz]"	"[dB]   0 dB = 1 A"
1.46484	-37.5918			1.46484	-98.4393
1.46484	-98.4393			1.46484	-98.4393
				1.46484	-98.4393
2.92969	-37.8802			2.92969	-105.223
2.92969	-105.223			2.92969	-105.223
				2.92969	-105.223
4.39453	-40.2844			4.39453	-106.258
4.39453	-106.258			4.39453	-106.258
				4.39453	-106.258
5.85938	-39.9168			5.85938	-112.375
5.85938	-112.375			5.85938	-112.375
				5.85938	-112.375
7.32422	-39.8337			7.32422	-116.091
7.32422	-116.091			7.32422	-116.091
				7.32422	-116.091
8.78906	-40.0115			8.78906	-112.775
8.78906	-112.775			8.78906	-112.775
				8.78906	-112.775
10.2539	-39.8628			10.2539	-105.72
10.2539	-105.72			10.2539	-105.72
				10.2539	-105.72
11.7188	-40.4915			11.7188	-106.994
11.7188	-106.994			11.7188	-106.994
				11.7188	-106.994
13.1836	-41.0667			13.1836	-108.486
13.1836	-108.486			13.1836	-108.486
				13.1836	-108.486
14.6484	-41.2708			14.6484	-112.005
14.6484	-112.005			14.6484	-112.005
				14.6484	-112.005
16.1133	-41.7828			16.1133	-107.855
16.1133	-107.855			16.1133	-107.855
				16.1133	-107.855
17.5781	-42.5849			17.5781	-108.258
17.5781	-108.258			17.5781	-108.258
				17.5781	-108.258
19.043	-42.514			19.043	-109.457
19.043	-109.457			19.043	-109.457
				19.043	-109.457
20.5078	-43.329			20.5078	-106.366
20.5078	-106.366			20.5078	-106.366
				20.5078	-106.366
21.9727	-44.5785			21.9727	-115.732
21.9727	-115.732			21.9727	-115.732
				21.9727	-115.732
23.4375	-45.5843			23.4375	-107.421
23.4375	-107.421			23.4375	-107.421
				23.4375	-107.421
24.9023	-45.1844			24.9023	-110.125
24.9023	-110.125			24.9023	-110.125
				24.9023	-110.125
26.3672	-46.5473			26.3672	-113.28
26.3672	-113.28			26.3672	-113.28
				26.3672	-113.28
27.832	-47.2802			27.832	-113.597
27.832	-113.597			27.832	-113.597
				27.832	-113.597
29.2969	-47.0503			29.2969	-126.4
29.2969	-126.4			29.2969	-126.4
				29.2969	-126.4
30.7617	-47.4235			30.7617	-118.158
30.7617	-118.158			30.7617	-118.158
				30.7617	-118.158
32.2266	-47.9417			32.2266	-112.736
32.2266	-112.736			32.2266	-112.736
				32.2266	-112.736
33.6914	-49.6335			33.6914	-109.28
33.6914	-109.28			33.6914	-109.28
				33.6914	-109.28
35.1563	-49.7021			35.1563	-110.116
35.1563	-110.116			35.1563	-110.116
				35.1563	-110.116
36.6211	-49.9111			36.6211	-109.722
36.6211	-109.722			36.6211	-109.722
				36.6211	-109.722
38.0859	-51.903			38.0859	-111.073
38.0859	-111.073			38.0859	-111.073
				38.0859	-111.073
39.5508	-51.9059			39.5508	-126.463
39.5508	-126.463			39.5508	-126.463
				39.5508	-126.463
41.0156	-52.1561			41.0156	-111.893
41.0156	-111.893			41.0156	-111.893
				41.0156	-111.893
42.4805	-51.1477			42.4805	-109.799
42.4805	-109.799			42.4805	-109.799
				42.4805	-109.799
43.9453	-53.7884			43.9453	-105.848
43.9453	-105.848			43.9453	-105.848
				43.9453	-105.848
45.4102	-51.4075			45.4102	-107.785
45.4102	-107.785			45.4102	-107.785
				45.4102	-107.785
46.875	-52.0397			46.875	-105.542
46.875	-105.542			46.875	-105.542
				46.875	-105.542
48.3398	-50.8592			48.3398	-107.381
48.3398	-107.381			48.3398	-107.381
				48.3398	-107.381
49.8047	-49.5086			49.8047	-108.629
49.8047	-108.629			49.8047	-108.629
				49.8047	-108.629
51.2695	-50.075			51.2695	-114.482
51.2695	-114.482			51.2695	-114.482
				51.2695	-114.482
52.7344	-49.9683			52.7344	-111.378
52.7344	-111.378			52.7344	-111.378
				52.7344	-111.378
54.1992	-48.9082			54.1992	-108.17
54.1992	-108.17			54.1992	-108.17
				54.1992	-108.17
55.6641	-48.8651			55.6641	-119.271
55.6641	-119.271			55.6641	-119.271
				55.6641	-119.271
57.1289	-48.6443			57.1289	-109.913
57.1289	-109.913			57.1289	-109.913
				57.1289	-109.913
58.5938	-48.1437			58.5938	-113.812
58.5938	-113.812			58.5938	-113.812
				58.5938	-113.812
60.0586	-46.6514			60.0586	-108.066
60.0586	-108.066			60.0586	-108.066
				60.0586	-108.066
61.5234	-46.2042			61.5234	-108.017
61.5234	-108.017			61.5234	-108.017
				61.5234	-108.017
		62.9883	-70.0381	62.9883	-116.057
		62.9883	-116.057	62.9883	-116.057
				62.9883	-116.057
64.4531	-46.09			64.4531	-113.438
64.4531	-113.438			64.4531	-113.438
				64.4531	-113.438
65.918	-45.1563			65.918	-110.182
65.918	-110.182			65.918	-110.182
				65.918	-110.182
67.3828	-45.4614			67.3828	-115.736
67.3828	-115.736			67.3828	-115.736
				67.3828	-115.736
		68.8477	-68.8972	68.8477	-111.859
		68.8477	-111.859	68.8477	-111.859
				68.8477	-111.859
70.3125	-44.4513			70.3125	-113.855
70.3125	-113.855			70.3125	-113.855
				70.3125	-113.855
71.7773	-44.3292			71.7773	-109.632
71.7773	-109.632			71.7773	-109.632
				71.7773	-109.632
73.2422	-44.2074			73.2422	-114.314
73.2422	-114.314			73.2422	-114.314
				73.2422	-114.314
		74.707	-71.6631	74.707	-112.348
		74.707	-112.348	74.707	-112.348
				74.707	-112.348
76.1719	-43.72			76.1719	-120.809
76.1719	-120.809			76.1719	-120.809
				76.1719	-120.809
77.6367	-43.4503			77.6367	-110.731
77.6367	-110.731			77.6367	-110.731
				77.6367	-110.731
		79.1016	-72.7643	79.1016	-115.698
		79.1016	-115.698	79.1016	-115.698
				79.1016	-115.698
80.5664	-43.1845			80.5664	-118.689
80.5664	-118.689			80.5664	-118.689
				80.5664	-118.689
		82.0313	-79.1335	82.0313	-108.801
		82.0313	-108.801	82.0313	-108.801
				82.0313	-108.801
83.4961	-42.8186			83.4961	-115.246
83.4961	-115.246			83.4961	-115.246
				83.4961	-115.246
84.9609	-42.5303			84.9609	-112.311
84.9609	-112.311			84.9609	-112.311
				84.9609	-112.311
		86.4258	-78.1129	86.4258	-104.991
		86.4258	-104.991	86.4258	-104.991
				86.4258	-104.991
87.8906	-42.1671			87.8906	-113.742
87.8906	-113.742			87.8906	-113.742
				87.8906	-113.742
		89.3555	-79.2458	89.3555	-117.225
		89.3555	-117.225	89.3555	-117.225
				89.3555	-117.225
90.8203	-41.5783			90.8203	-116.546
90.8203	-116.546			90.8203	-116.546
				90.8203	-116.546
92.2852	-41.6638			92.2852	-115.746
92.2852	-115.746			92.2852	-115.746
				92.2852	-115.746
		93.75	-77.404	93.75	-112.278
		93.75	-112.278	93.75	-112.278
				93.75	-112.278
95.2148	-41.5178			95.2148	-111.461
95.2148	-111.461			95.2148	-111.461
				95.2148	-111.461
		96.6797	-85.4849	96.6797	-103.884
		96.6797	-103.884	96.6797	-103.884
				96.6797	-103.884
98.1445	-41.3703			98.1445	-108.961
98.1445	-108.961			98.1445	-108.961
				98.1445	-108.961
		99.6094	-75.746	99.6094	-107.565
		99.6094	-107.565	99.6094	-107.565
				99.6094	-107.565
101.074	-40.8872			101.074	-115.394
101.074	-115.394			101.074	-115.394
				101.074	-115.394
		102.539	-77.3048	102.539	-113.519
		102.539	-113.519	102.539	-113.519
				102.539	-113.519
104.004	-40.8546			104.004	-109.215
104.004	-109.215			104.004	-109.215
				104.004	-109.215
		105.469	-87.0306	105.469	-112.541
		105.469	-112.541	105.469	-112.541
				105.469	-112.541
106.934	-40.623			106.934	-115.493
106.934	-115.493			106.934	-115.493
				106.934	-115.493
		108.398	-84.5434	108.398	-110.959
		108.398	-110.959	108.398	-110.959
				108.398	-110.959
		109.863	-80.6074	109.863	-114.309
		109.863	-114.309	109.863	-114.309
				109.863	-114.309
111.328	-40.3407			111.328	-110.167
111.328	-110.167			111.328	-110.167
				111.328	-110.167
		112.793	-81.0548	112.793	-117.74
		112.793	-117.74	112.793	-117.74
				112.793	-117.74
114.258	-40.2376			114.258	-110.908
114.258	-110.908			114.258	-110.908
				114.258	-110.908
		115.723	-82.9375	115.723	-123.283
		115.723	-123.283	115.723	-123.283
				115.723	-123.283
117.188	-40.0373			117.188	-119.114
117.188	-119.114			117.188	-119.114
				117.188	-119.114
		118.652	-88.8503	118.652	-112.707
		118.652	-112.707	118.652	-112.707
				118.652	-112.707
120.117	-40.0002			120.117	-108.599
120.117	-108.599			120.117	-108.599
				120.117	-108.599
		121.582	-81.2027	121.582	-108.138
		121.582	-108.138	121.582	-108.138
				121.582	-108.138
		123.047	-83.7218	123.047	-112.28
		123.047	-112.28	123.047	-112.28
				123.047	-112.28
124.512	-39.7431			124.512	-119.224
124.512	-119.224			124.512	-119.224
				124.512	-119.224
		125.977	-85.1479	125.977	-125.675
		125.977	-125.675	125.977	-125.675
				125.977	-125.675
127.441	-39.6836			127.441	-107.702
127.441	-107.702			127.441	-107.702
				127.441	-107.702
		128.906	-87.8325	128.906	-108.899
		128.906	-108.899	128.906	-108.899
				128.906	-108.899
		130.371	-80.7484	130.371	-116.265
		130.371	-116.265	130.371	-116.265
				130.371	-116.265
131.836	-39.564			131.836	-112.566
131.836	-112.566			131.836	-112.566
				131.836	-112.566
		133.301	-101.235	133.301	-114.49
		133.301	-114.49	133.301	-114.49
				133.301	-114.49
134.766	-39.4555			134.766	-106.17
134.766	-106.17			134.766	-106.17
				134.766	-106.17
		136.23	-84.4577	136.23	-117.981
		136.23	-117.981	136.23	-117.981
				136.23	-117.981
		137.695	-81.5122	137.695	-114.883
		137.695	-114.883	137.695	-114.883
				137.695	-114.883
139.16	-39.2722			139.16	-111.3
139.16	-111.3			139.16	-111.3
				139.16	-111.3
		140.625	-80.4506	140.625	-108.46
		140.625	-108.46	140.625	-108.46
				140.625	-108.46
		142.09	-84.1549	142.09	-111.092
		142.09	-111.092	142.09	-111.092
				142.09	-111.092
143.555	-39.178			143.555	-111.338
143.555	-111.338			143.555	-111.338
				143.555	-111.338
		145.02	-82.2173	145.02	-118.477
		145.02	-118.477	145.02	-118.477
				145.02	-118.477
		146.484	-83.6303	146.484	-112.399
		146.484	-112.399	146.484	-112.399
				146.484	-112.399
147.949	-39.0705			147.949	-119.275
147.949	-119.275			147.949	-119.275
				147.949	-119.275
		149.414	-100.442	149.414	-112.629
		149.414	-112.629	149.414	-112.629
				149.414	-112.629
		150.879	-83.7466	150.879	-138.526
		150.879	-138.526	150.879	-138.526
				150.879	-138.526
152.344	-38.9882			152.344	-105.011
152.344	-105.011			152.344	-105.011
				152.344	-105.011
		153.809	-86.7507	153.809	-109.169
		153.809	-109.169	153.809	-109.169
				153.809	-109.169
		155.273	-88.211	155.273	-113.299
		155.273	-113.299	155.273	-113.299
				155.273	-113.299
156.738	-38.8767			156.738	-109.456
156.738	-109.456			156.738	-109.456
				156.738	-109.456
		158.203	-87.9775	158.203	-109.735
		158.203	-109.735	158.203	-109.735
				158.203	-109.735
		159.668	-87.9398	159.668	-112.413
		159.668	-112.413	159.668	-112.413
				159.668	-112.413
161.133	-38.8484			161.133	-109.429
161.133	-109.429			161.133	-109.429
				161.133	-109.429
		162.598	-83.806	162.598	-115.728
		162.598	-115.728	162.598	-115.728
				162.598	-115.728
		164.063	-100.059	164.063	-113.273
		164.063	-113.273	164.063	-113.273
				164.063	-113.273
165.527	-38.7658			165.527	-110.278
165.527	-110.278			165.527	-110.278
				165.527	-110.278
		166.992	-92.8647	166.992	-127.135
		166.992	-127.135	166.992	-127.135
				166.992	-127.135
		168.457	-100.283	168.457	-115.781
		168.457	-115.781	168.457	-115.781
				168.457	-115.781
169.922	-38.7118			169.922	-115.528
169.922	-115.528			169.922	-115.528
				169.922	-115.528
		171.387	-96.1937	171.387	-109.046
		171.387	-109.046	171.387	-109.046
				171.387	-109.046
		172.852	-93.4535	172.852	-105.341
		172.852	-105.341	172.852	-105.341
				172.852	-105.341
		174.316	-92.2612	174.316	-112.604
		174.316	-112.604	174.316	-112.604
				174.316	-112.604
175.781	-38.6343			175.781	-110.652
175.781	-110.652			175.781	-110.652
				175.781	-110.652
		177.246	-94.3034	177.246	-126.398
		177.246	-126.398	177.246	-126.398
				177.246	-126.398
		178.711	-105.571	178.711	-119.923
		178.711	-119.923	178.711	-119.923
				178.711	-119.923
180.176	-38.6061			180.176	-124.658
180.176	-124.658			180.176	-124.658
				180.176	-124.658
		181.641	-87.8211	181.641	-111.729
		181.641	-111.729	181.641	-111.729
				181.641	-111.729
		183.105	-89.4422	183.105	-123.957
		183.105	-123.957	183.105	-123.957
				183.105	-123.957
		184.57	-94.7225	184.57	-110.87
		184.57	-110.87	184.57	-110.87
				184.57	-110.87
186.035	-38.5527			186.035	-110.79
186.035	-110.79			186.035	-110.79
				186.035	-110.79
		187.5	-92.2097	187.5	-118.742
		187.5	-118.742	187.5	-118.742
				187.5	-118.742
		188.965	-93.8806	188.965	-115.274
		188.965	-115.274	188.965	-115.274
				188.965	-115.274
		190.43	-86.7199	190.43	-111.635
		190.43	-111.635	190.43	-111.635
				190.43	-111.635
191.895	-38.507			191.895	-113.756
191.895	-113.756			191.895	-113.756
				191.895	-113.756
		193.359	-88.5324	193.359	-115.433
		193.359	-115.433	193.359	-115.433
				193.359	-115.433
		194.824	-96.0462	194.824	-109.418
		194.824	-109.418	194.824	-109.418
				194.824	-109.418
		196.289	-100.068	196.289	-108.39
		196.289	-108.39	196.289	-108.39
				196.289	-108.39
197.754	-38.4614			197.754	-111.466
197.754	-111.466			197.754	-111.466
				197.754	-111.466
		199.219	-94.7075	199.219	-115.64
		199.219	-115.64	199.219	-115.64
				199.219	-115.64
		200.684	-109.261	200.684	-117.645
		200.684	-117.645	200.684	-117.645
				200.684	-117.645
202.148	-38.4265			202.148	-108.935
202.148	-108.935			202.148	-108.935
				202.148	-108.935
		203.613	-110.857	203.613	-115.753
		203.613	-115.753	203.613	-115.753
				203.613	-115.753
		205.078	-84.7993	205.078	-122.862
		205.078	-122.862	205.078	-122.862
				205.078	-122.862
		206.543	-93.8441	206.543	-107.237
		206.543	-107.237	206.543	-107.237
				206.543	-107.237
		208.008	-86.9346	208.008	-115.561
		208.008	-115.561	208.008	-115.561
				208.008	-115.561
209.473	-38.4174			209.473	-121.637
209.473	-121.637			209.473	-121.637
				209.473	-121.637
		210.938	-96.0403	210.938	-110.776
		210.938	-110.776	210.938	-110.776
				210.938	-110.776
		212.402	-97.6692	212.402	-117.248
		212.402	-117.248	212.402	-117.248
				212.402	-117.248
		213.867	-91.3468	213.867	-115.137
		213.867	-115.137	213.867	-115.137
				213.867	-115.137
215.332	-38.3481			215.332	-108.035
215.332	-108.035			215.332	-108.035
				215.332	-108.035
		216.797	-93.26	216.797	-121.844
		216.797	-121.844	216.797	-121.844
				216.797	-121.844
		218.262	-87.1604	218.262	-115.572
		218.262	-115.572	218.262	-115.572
				218.262	-115.572
		219.727	-87.0541	219.727	-119.029
		219.727	-119.029	219.727	-119.029
				219.727	-119.029
221.191	-38.3535			221.191	-115.073
221.191	-115.073			221.191	-115.073
				221.191	-115.073
		222.656	-95.2385	222.656	-109.602
		222.656	-109.602	222.656	-109.602
				222.656	-109.602
		224.121	-86.4842	224.121	-116.269
		224.121	-116.269	224.121	-116.269
				224.121	-116.269
		225.586	-92.2026	225.586	-114.738
		225.586	-114.738	225.586	-114.738
				225.586	-114.738
227.051	-38.3458			227.051	-113.833
227.051	-113.833			227.051	-113.833
				227.051	-113.833
		228.516	-88.7113	228.516	-121.195
		228.516	-121.195	228.516	-121.195
				228.516	-121.195
		229.98	-91.559	229.98	-108.974
		229.98	-108.974	229.98	-108.974
				229.98	-108.974
		231.445	-92.5226	231.445	-112.04
		231.445	-112.04	231.445	-112.04
				231.445	-112.04
		232.91	-93.1223	232.91	-111.734
		232.91	-111.734	232.91	-111.734
				232.91	-111.734
234.375	-38.32			234.375	-113.078
234.375	-113.078			234.375	-113.078
				234.375	-113.078
		235.84	-93.7131	235.84	-111.507
		235.84	-111.507	235.84	-111.507
				235.84	-111.507
		237.305	-97.3437	237.305	-111.805
		237.305	-111.805	237.305	-111.805
				237.305	-111.805
		238.77	-92.6283	238.77	-119.081
		238.77	-119.081	238.77	-119.081
				238.77	-119.081
		240.234	-93.8492	240.234	-109.134
		240.234	-109.134	240.234	-109.134
				240.234	-109.134
241.699	-38.33			241.699	-137.17
241.699	-137.17			241.699	-137.17
				241.699	-137.17
		243.164	-103.832	243.164	-113.871
		243.164	-113.871	243.164	-113.871
				243.164	-113.871
		244.629	-90.9636	244.629	-121.4
		244.629	-121.4	244.629	-121.4
				244.629	-121.4
		246.094	-90.6374	246.094	-108.12
		246.094	-108.12	246.094	-108.12
				246.094	-108.12
		247.559	-98.6284	247.559	-113.866
		247.559	-113.866	247.559	-113.866
				247.559	-113.866
249.023	-38.3221			249.023	-106.806
249.023	-106.806			249.023	-106.806
				249.023	-106.806
		250.488	-103.244	250.488	-117.463
		250.488	-117.463	250.488	-117.463
				250.488	-117.463
		251.953	-86.0593	251.953	-104.028
		251.953	-104.028	251.953	-104.028
				251.953	-104.028
		253.418	-97.3283	253.418	-114.134
		253.418	-114.134	253.418	-114.134
				253.418	-114.134
254.883	-38.3368			254.883	-121.994
254.883	-121.994			254.883	-121.994
				254.883	-121.994
		256.348	-91.2475	256.348	-107.563
		256.348	-107.563	256.348	-107.563
				256.348	-107.563
		257.813	-89.6727	257.813	-122.25
		257.813	-122.25	257.813	-122.25
				257.813	-122.25
		259.277	-91.944	259.277	-115.116
		259.277	-115.116	259.277	-115.116
				259.277	-115.116
		260.742	-87.3439	260.742	-109.963
		260.742	-109.963	260.742	-109.963
				260.742	-109.963
		262.207	-98.2248	262.207	-112.563
		262.207	-112.563	262.207	-112.563
				262.207	-112.563
263.672	-38.3466			263.672	-112.231
263.672	-112.231			263.672	-112.231
				263.672	-112.231
		265.137	-89.8948	265.137	-115.719
		265.137	-115.719	265.137	-115.719
				265.137	-115.719
		266.602	-90.4046	266.602	-116.923
		266.602	-116.923	266.602	-116.923
				266.602	-116.923
		268.066	-106.784	268.066	-112.125
		268.066	-112.125	268.066	-112.125
				268.066	-112.125
		269.531	-92.9074	269.531	-114.945
		269.531	-114.945	269.531	-114.945
				269.531	-114.945
270.996	-38.4089			270.996	-117.585
270.996	-117.585			270.996	-117.585
				270.996	-117.585
		272.461	-98.6545	272.461	-108.453
		272.461	-108.453	272.461	-108.453
				272.461	-108.453
		273.926	-86.178	273.926	-113.452
		273.926	-113.452	273.926	-113.452
				273.926	-113.452
		275.391	-89.3936	275.391	-114
		275.391	-114	275.391	-114
				275.391	-114
		276.855	-90.1572	276.855	-108.679
		276.855	-108.679	276.855	-108.679
				276.855	-108.679
278.32	-38.3847			278.32	-117.802
278.32	-117.802			278.32	-117.802
				278.32	-117.802
		279.785	-92.7769	279.785	-116.384
		279.785	-116.384	279.785	-116.384
				279.785	-116.384
		281.25	-98.3707	281.25	-113.302
		281.25	-113.302	281.25	-113.302
				281.25	-113.302
		282.715	-91.6048	282.715	-107.827
		282.715	-107.827	282.715	-107.827
				282.715	-107.827
		284.18	-90.9778	284.18	-124.813
		284.18	-124.813	284.18	-124.813
				284.18	-124.813
		285.645	-95.8269	285.645	-113.463
		285.645	-113.463	285.645	-113.463
				285.645	-113.463
287.109	-38.3331			287.109	-114.531
287.109	-114.531			287.109	-114.531
				287.109	-114.531
		288.574	-86.1649	288.574	-115.939
		288.574	-115.939	288.574	-115.939
				288.574	-115.939
		290.039	-95.0578	290.039	-108.512
		290.039	-108.512	290.039	-108.512
				290.039	-108.512
		291.504	-89.7045	291.504	-109.799
		291.504	-109.799	291.504	-109.799
				291.504	-109.799
		292.969	-90.4999	292.969	-116.979
		292.969	-116.979	292.969	-116.979
				292.969	-116.979
		294.434	-101.729	294.434	-109.289
		294.434	-109.289	294.434	-109.289
				294.434	-109.289
295.898	-38.3232			295.898	-113.026
295.898	-113.026			295.898	-113.026
				295.898	-113.026
		297.363	-87.3169	297.363	-109.18
		297.363	-109.18	297.363	-109.18
				297.363	-109.18
		298.828	-85.3587	298.828	-110.244
		298.828	-110.244	298.828	-110.244
				298.828	-110.244
		300.293	-93.9193	300.293	-117.638
		300.293	-117.638	300.293	-117.638
				300.293	-117.638
		301.758	-105.955	301.758	-113.394
		301.758	-113.394	301.758	-113.394
				301.758	-113.394
303.223	-38.3124			303.223	-115.158
303.223	-115.158			303.223	-115.158
				303.223	-115.158
		304.688	-95.632	304.688	-113.732
		304.688	-113.732	304.688	-113.732
				304.688	-113.732
		306.152	-92.6609	306.152	-116.393
		306.152	-116.393	306.152	-116.393
				306.152	-116.393
		307.617	-94.095	307.617	-108.669
		307.617	-108.669	307.617	-108.669
				307.617	-108.669
		309.082	-94.5928	309.082	-115.003
		309.082	-115.003	309.082	-115.003
				309.082	-115.003
		310.547	-89.9836	310.547	-115.162
		310.547	-115.162	310.547	-115.162
				310.547	-115.162
		312.012	-87.0292	312.012	-111.587
		312.012	-111.587	312.012	-111.587
				312.012	-111.587
313.477	-38.333			313.477	-113.795
313.477	-113.795			313.477	-113.795
				313.477	-113.795
		314.941	-90.6998	314.941	-118.324
		314.941	-118.324	314.941	-118.324
				314.941	-118.324
		316.406	-93.1316	316.406	-112.098
		316.406	-112.098	316.406	-112.098
				316.406	-112.098
		317.871	-89.1167	317.871	-116.292
		317.871	-116.292	317.871	-116.292
				317.871	-116.292
		319.336	-105.156	319.336	-110.705
		319.336	-110.705	319.336	-110.705
				319.336	-110.705
		320.801	-84.9511	320.801	-113.932
		320.801	-113.932	320.801	-113.932
				320.801	-113.932
322.266	-38.3577			322.266	-113.964
322.266	-113.964			322.266	-113.964
				322.266	-113.964
		323.73	-87.0826	323.73	-107.788
		323.73	-107.788	323.73	-107.788
				323.73	-107.788
		325.195	-87.4956	325.195	-116.706
		325.195	-116.706	325.195	-116.706
				325.195	-116.706
		326.66	-94.3228	326.66	-120.062
		326.66	-120.062	326.66	-120.062
				326.66	-120.062
		328.125	-91.0474	328.125	-109.046
		328.125	-109.046	328.125	-109.046
				328.125	-109.046
		329.59	-93.5119	329.59	-116.581
		329.59	-116.581	329.59	-116.581
				329.59	-116.581
331.055	-38.37			331.055	-122.96
331.055	-122.96			331.055	-122.96
				331.055	-122.96
		332.52	-103.565	332.52	-107.782
		332.52	-107.782	332.52	-107.782
				332.52	-107.782
		333.984	-105.966	333.984	-119.683
		333.984	-119.683	333.984	-119.683
				333.984	-119.683
		335.449	-109.981	335.449	-116.528
		335.449	-116.528	335.449	-116.528
				335.449	-116.528
		336.914	-99.7194	336.914	-114.575
		336.914	-114.575	336.914	-114.575
				336.914	-114.575
		338.379	-91.986	338.379	-112.312
		338.379	-112.312	338.379	-112.312
				338.379	-112.312
		339.844	-95.8783	339.844	-113.277
		339.844	-113.277	339.844	-113.277
				339.844	-113.277
341.309	-38.3808			341.309	-117.087
341.309	-117.087			341.309	-117.087
				341.309	-117.087
		342.773	-92.9444	342.773	-117.92
		342.773	-117.92	342.773	-117.92
				342.773	-117.92
		344.238	-90.7565	344.238	-117.623
		344.238	-117.623	344.238	-117.623
				344.238	-117.623
		345.703	-91.1904	345.703	-114.055
		345.703	-114.055	345.703	-114.055
				345.703	-114.055
		347.168	-91.473	347.168	-117.944
		347.168	-117.944	347.168	-117.944
				347.168	-117.944
		348.633	-97.3658	348.633	-109.338
		348.633	-109.338	348.633	-109.338
				348.633	-109.338
		350.098	-93.0196	350.098	-119.015
		350.098	-119.015	350.098	-119.015
				350.098	-119.015
351.563	-38.4355			351.563	-118.288
351.563	-118.288			351.563	-118.288
				351.563	-118.288
		353.027	-91.9403	353.027	-118.224
		353.027	-118.224	353.027	-118.224
				353.027	-118.224
		354.492	-96.7036	354.492	-125.16
		354.492	-125.16	354.492	-125.16
				354.492	-125.16
		355.957	-95.595	355.957	-121.382
		355.957	-121.382	355.957	-121.382
				355.957	-121.382
		357.422	-93.2223	357.422	-112.151
		357.422	-112.151	357.422	-112.151
				357.422	-112.151
		358.887	-86.8891	358.887	-117.688
		358.887	-117.688	358.887	-117.688
				358.887	-117.688
		360.352	-92.4205	360.352	-116.89
		360.352	-116.89	360.352	-116.89
				360.352	-116.89
361.816	-38.4476			361.816	-114.867
361.816	-114.867			361.816	-114.867
				361.816	-114.867
		363.281	-87.9975	363.281	-112.772
		363.281	-112.772	363.281	-112.772
				363.281	-112.772
		364.746	-89.8009	364.746	-111.227
		364.746	-111.227	364.746	-111.227
				364.746	-111.227
		366.211	-109.264	366.211	-111.787
		366.211	-111.787	366.211	-111.787
				366.211	-111.787
		367.676	-93.2005	367.676	-114.479
		367.676	-114.479	367.676	-114.479
				367.676	-114.479
		369.141	-89.6524	369.141	-110.255
		369.141	-110.255	369.141	-110.255
				369.141	-110.255
		370.605	-95.4729	370.605	-117.723
		370.605	-117.723	370.605	-117.723
				370.605	-117.723
372.07	-38.4708			372.07	-112.805
372.07	-112.805			372.07	-112.805
				372.07	-112.805
		373.535	-96.0862	373.535	-112.823
		373.535	-112.823	373.535	-112.823
				373.535	-112.823
		375	-85.4358	375	-115.223
		375	-115.223	375	-115.223
				375	-115.223
		376.465	-86.2396	376.465	-108.595
		376.465	-108.595	376.465	-108.595
				376.465	-108.595
		377.93	-89.5066	377.93	-115.745
		377.93	-115.745	377.93	-115.745
				377.93	-115.745
				379.395	-113.803
				379.395	-113.803
				379.395	-113.803
		380.859	-87.2457	380.859	-120.643
		380.859	-120.643	380.859	-120.643
				380.859	-120.643
382.324	-38.5127			382.324	-111.674
382.324	-111.674			382.324	-111.674
				382.324	-111.674
		383.789	-101.496	383.789	-115.283
		383.789	-115.283	383.789	-115.283
				383.789	-115.283
		385.254	-87.8424	385.254	-116.298
		385.254	-116.298	385.254	-116.298
				385.254	-116.298
		386.719	-92.9932	386.719	-116.668
		386.719	-116.668	386.719	-116.668
				386.719	-116.668
		388.184	-88.1527	388.184	-110.292
		388.184	-110.292	388.184	-110.292
				388.184	-110.292
		389.648	-90.3148	389.648	-127.662
		389.648	-127.662	389.648	-127.662
				389.648	-127.662
		391.113	-89.684	391.113	-114.863
		391.113	-114.863	391.113	-114.863
				391.113	-114.863
		392.578	-98.9558	392.578	-111.399
		392.578	-111.399	392.578	-111.399
				392.578	-111.399
394.043	-38.5252			394.043	-119.673
394.043	-119.673			394.043	-119.673
				394.043	-119.673
		395.508	-86.4941	395.508	-116.529
		395.508	-116.529	395.508	-116.529
				395.508	-116.529
		396.973	-94.7595	396.973	-117.367
		396.973	-117.367	396.973	-117.367
				396.973	-117.367
		398.438	-91.9401	398.438	-117.202
		398.438	-117.202	398.438	-117.202
				398.438	-117.202
		399.902	-87.4928	399.902	-115.502
		399.902	-115.502	399.902	-115.502
				399.902	-115.502
		401.367	-99.7899	401.367	-113.961
		401.367	-113.961	401.367	-113.961
				401.367	-113.961
		402.832	-88.785	402.832	-113.386
		402.832	-113.386	402.832	-113.386
				402.832	-113.386
		404.297	-89.843	404.297	-114.424
		404.297	-114.424	404.297	-114.424
				404.297	-114.424
405.762	-38.57			405.762	-110.392
405.762	-110.392			405.762	-110.392
				405.762	-110.392
		407.227	-86.1463	407.227	-112.234
		407.227	-112.234	407.227	-112.234
				407.227	-112.234
		408.691	-90.1702	408.691	-119.328
		408.691	-119.328	408.691	-119.328
				408.691	-119.328
		410.156	-98.5011	410.156	-113.912
		410.156	-113.912	410.156	-113.912
				410.156	-113.912
		411.621	-85.7341	411.621	-117.712
		411.621	-117.712	411.621	-117.712
				411.621	-117.712
		413.086	-95.6208	413.086	-114.407
		413.086	-114.407	413.086	-114.407
				413.086	-114.407
		414.551	-87.7062	414.551	-118.66
		414.551	-118.66	414.551	-118.66
				414.551	-118.66
		416.016	-102.76	416.016	-104.007
		416.016	-104.007	416.016	-104.007
				416.016	-104.007
417.48	-38.6071			417.48	-109.494
417.48	-109.494			417.48	-109.494
				417.48	-109.494
		418.945	-88.763	418.945	-105.51
		418.945	-105.51	418.945	-105.51
				418.945	-105.51
		420.41	-85.5846	420.41	-110.9
		420.41	-110.9	420.41	-110.9
				420.41	-110.9
		421.875	-90.6301	421.875	-109.319
		421.875	-109.319	421.875	-109.319
				421.875	-109.319
		423.34	-92.53	423.34	-113.587
		423.34	-113.587	423.34	-113.587
				423.34	-113.587
		424.805	-98.3447	424.805	-116.98
		424.805	-116.98	424.805	-116.98
				424.805	-116.98
		426.27	-90.7348	426.27	-116.303
		426.27	-116.303	426.27	-116.303
				426.27	-116.303
		427.734	-90.1079	427.734	-106.329
		427.734	-106.329	427.734	-106.329
				427.734	-106.329
429.199	-38.5943			429.199	-119.589
429.199	-119.589			429.199	-119.589
				429.199	-119.589
		430.664	-84.1474	430.664	-116.723
		430.664	-116.723	430.664	-116.723
				430.664	-116.723
		432.129	-92.8839	432.129	-109.676
		432.129	-109.676	432.129	-109.676
				432.129	-109.676
		433.594	-89.1971	433.594	-114.162
		433.594	-114.162	433.594	-114.162
				433.594	-114.162
		435.059	-98.1824	435.059	-112.172
		435.059	-112.172	435.059	-112.172
				435.059	-112.172
		436.523	-99.2813	436.523	-117.04
		436.523	-117.04	436.523	-117.04
				436.523	-117.04
		437.988	-97.0539	437.988	-130.816
		437.988	-130.816	437.988	-130.816
				437.988	-130.816
		439.453	-89.2895	439.453	-113.79
		439.453	-113.79	439.453	-113.79
				439.453	-113.79
		440.918	-84.1988	440.918	-110.018
		440.918	-110.018	440.918	-110.018
				440.918	-110.018
442.383	-38.6839			442.383	-111.289
442.383	-111.289			442.383	-111.289
				442.383	-111.289
		443.848	-83.7578	443.848	-111.04
		443.848	-111.04	443.848	-111.04
				443.848	-111.04
		445.313	-85.9925	445.313	-109.391
		445.313	-109.391	445.313	-109.391
				445.313	-109.391
		446.777	-89.6228	446.777	-120.47
		446.777	-120.47	446.777	-120.47
				446.777	-120.47
		448.242	-95.3969	448.242	-111.703
		448.242	-111.703	448.242	-111.703
				448.242	-111.703
		449.707	-91.58	449.707	-114.834
		449.707	-114.834	449.707	-114.834
				449.707	-114.834
		451.172	-88.1988	451.172	-107.909
		451.172	-107.909	451.172	-107.909
				451.172	-107.909
		452.637	-87.0126	452.637	-114.291
		452.637	-114.291	452.637	-114.291
				452.637	-114.291
		454.102	-88.6336	454.102	-122.519
		454.102	-122.519	454.102	-122.519
				454.102	-122.519
455.566	-38.6954			455.566	-140.517
455.566	-140.517			455.566	-140.517
				455.566	-140.517
		457.031	-88.2307	457.031	-109.617
		457.031	-109.617	457.031	-109.617
				457.031	-109.617
		458.496	-97.3197	458.496	-109.036
		458.496	-109.036	458.496	-109.036
				458.496	-109.036
		459.961	-98.2414	459.961	-119.731
		459.961	-119.731	459.961	-119.731
				459.961	-119.731
		461.426	-88.1378	461.426	-115.767
		461.426	-115.767	461.426	-115.767
				461.426	-115.767
		462.891	-82.7215	462.891	-109.807
		462.891	-109.807	462.891	-109.807
				462.891	-109.807
		464.355	-97.925	464.355	-119.251
		464.355	-119.251	464.355	-119.251
				464.355	-119.251
		465.82	-88.9722	465.82	-120.598
		465.82	-120.598	465.82	-120.598
				465.82	-120.598
		467.285	-86.9005	467.285	-122.352
		467.285	-122.352	467.285	-122.352
				467.285	-122.352
468.75	-38.7235			468.75	-128.112
468.75	-128.112			468.75	-128.112
				468.75	-128.112
		470.215	-93.2553	470.215	-108.469
		470.215	-108.469	470.215	-108.469
				470.215	-108.469
		471.68	-88.4683	471.68	-111.043
		471.68	-111.043	471.68	-111.043
				471.68	-111.043
		473.145	-92.4415	473.145	-112.998
		473.145	-112.998	473.145	-112.998
				473.145	-112.998
		474.609	-96.4529	474.609	-125.093
		474.609	-125.093	474.609	-125.093
				474.609	-125.093
		476.074	-86.8535	476.074	-113.73
		476.074	-113.73	476.074	-113.73
				476.074	-113.73
		477.539	-95.5137	477.539	-110.926
		477.539	-110.926	477.539	-110.926
				477.539	-110.926
		479.004	-91.5716	479.004	-112.817
		479.004	-112.817	479.004	-112.817
				479.004	-112.817
		480.469	-89.5043	480.469	-108.951
		480.469	-108.951	480.469	-108.951
				480.469	-108.951
481.934	-38.7795			481.934	-108.905
481.934	-108.905			481.934	-108.905
				481.934	-108.905
		483.398	-87.4734	483.398	-110.977
		483.398	-110.977	483.398	-110.977
				483.398	-110.977
		484.863	-97.976	484.863	-118.133
		484.863	-118.133	484.863	-118.133
				484.863	-118.133
		486.328	-92.5474	486.328	-118.302
		486.328	-118.302	486.328	-118.302
				486.328	-118.302
		487.793	-103.268	487.793	-124.605
		487.793	-124.605	487.793	-124.605
				487.793	-124.605
		489.258	-94.9782	489.258	-121.314
		489.258	-121.314	489.258	-121.314
				489.258	-121.314
		490.723	-87.3507	490.723	-111.821
		490.723	-111.821	490.723	-111.821
				490.723	-111.821
		492.188	-88.9648	492.188	-112.83
		492.188	-112.83	492.188	-112.83
				492.188	-112.83
		493.652	-84.3911	493.652	-121.346
		493.652	-121.346	493.652	-121.346
				493.652	-121.346
		495.117	-95.7579	495.117	-119.584
		495.117	-119.584	495.117	-119.584
				495.117	-119.584
496.582	-38.8379			496.582	-109.149
496.582	-109.149			496.582	-109.149
				496.582	-109.149
		498.047	-92.0484	498.047	-108.163
		498.047	-108.163	498.047	-108.163
				498.047	-108.163
		499.512	-98.7893	499.512	-112.398
		499.512	-112.398	499.512	-112.398
				499.512	-112.398
		500.977	-98.0828	500.977	-118.376
		500.977	-118.376	500.977	-118.376
				500.977	-118.376
		502.441	-95.1603	502.441	-111.372
		502.441	-111.372	502.441	-111.372
				502.441	-111.372
		503.906	-90.8358	503.906	-105.868
		503.906	-105.868	503.906	-105.868
				503.906	-105.868
		505.371	-98.9532	505.371	-116.295
		505.371	-116.295	505.371	-116.295
				505.371	-116.295
		506.836	-87.7304	506.836	-108.884
		506.836	-108.884	506.836	-108.884
				506.836	-108.884
		508.301	-96.5989	508.301	-118.243
		508.301	-118.243	508.301	-118.243
				508.301	-118.243
		509.766	-96.7227	509.766	-114.058
		509.766	-114.058	509.766	-114.058
				509.766	-114.058
511.23	-38.8963			511.23	-108.073
511.23	-108.073			511.23	-108.073
				511.23	-108.073
		512.695	-88.7733	512.695	-114.406
		512.695	-114.406	512.695	-114.406
				512.695	-114.406
		514.16	-88.7602	514.16	-112.052
		514.16	-112.052	514.16	-112.052
				514.16	-112.052
		515.625	-93.2751	515.625	-113.302
		515.625	-113.302	515.625	-113.302
				515.625	-113.302
		517.09	-96.7462	517.09	-111.639
		517.09	-111.639	517.09	-111.639
				517.09	-111.639
		518.555	-91.6391	518.555	-108.34
		518.555	-108.34	518.555	-108.34
				518.555	-108.34
		520.02	-86.8769	520.02	-106.57
		520.02	-106.57	520.02	-106.57
				520.02	-106.57
		521.484	-91.759	521.484	-109.823
		521.484	-109.823	521.484	-109.823
				521.484	-109.823
		522.949	-89.8066	522.949	-118.761
		522.949	-118.761	522.949	-118.761
				522.949	-118.761
		524.414	-90.2116	524.414	-114.313
		524.414	-114.313	524.414	-114.313
				524.414	-114.313
525.879	-38.8974			525.879	-110.026
525.879	-110.026			525.879	-110.026
				525.879	-110.026
		527.344	-89.6413	527.344	-110.743
		527.344	-110.743	527.344	-110.743
				527.344	-110.743
		528.809	-89.851	528.809	-114.621
		528.809	-114.621	528.809	-114.621
				528.809	-114.621
		530.273	-89.0001	530.273	-118.368
		530.273	-118.368	530.273	-118.368
				530.273	-118.368
		531.738	-86.688	531.738	-116.204
		531.738	-116.204	531.738	-116.204
				531.738	-116.204
		533.203	-95.851	533.203	-111.203
		533.203	-111.203	533.203	-111.203
				533.203	-111.203
		534.668	-111.721	534.668	-114.567
		534.668	-114.567	534.668	-114.567
				534.668	-114.567
		536.133	-88.6414	536.133	-114.628
		536.133	-114.628	536.133	-114.628
				536.133	-114.628
		537.598	-112.301	537.598	-114.548
		537.598	-114.548	537.598	-114.548
				537.598	-114.548
		539.063	-98.9602	539.063	-113.691
		539.063	-113.691	539.063	-113.691
				539.063	-113.691
		540.527	-95.2	540.527	-111.185
		540.527	-111.185	540.527	-111.185
				540.527	-111.185
541.992	-38.9944			541.992	-119.122
541.992	-119.122			541.992	-119.122
				541.992	-119.122
		543.457	-100.143	543.457	-111.872
		543.457	-111.872	543.457	-111.872
				543.457	-111.872
		544.922	-99.0265	544.922	-107.32
		544.922	-107.32	544.922	-107.32
				544.922	-107.32
		546.387	-86.2013	546.387	-133.749
		546.387	-133.749	546.387	-133.749
				546.387	-133.749
		547.852	-94.7449	547.852	-116.636
		547.852	-116.636	547.852	-116.636
				547.852	-116.636
		549.316	-102.966	549.316	-117.808
		549.316	-117.808	549.316	-117.808
				549.316	-117.808
		550.781	-92.6331	550.781	-125.154
		550.781	-125.154	550.781	-125.154
				550.781	-125.154
		552.246	-93.8519	552.246	-118.282
		552.246	-118.282	552.246	-118.282
				552.246	-118.282
		553.711	-97.6046	553.711	-108.276
		553.711	-108.276	553.711	-108.276
				553.711	-108.276
		555.176	-86.8268	555.176	-108.473
		555.176	-108.473	555.176	-108.473
				555.176	-108.473
		556.641	-89.9429	556.641	-108.982
		556.641	-108.982	556.641	-108.982
				556.641	-108.982
558.105	-39.0529			558.105	-113.21
558.105	-113.21			558.105	-113.21
				558.105	-113.21
		559.57	-94.5673	559.57	-105.617
		559.57	-105.617	559.57	-105.617
				559.57	-105.617
		561.035	-89.3666	561.035	-112.945
		561.035	-112.945	561.035	-112.945
				561.035	-112.945
		562.5	-99.353	562.5	-119.312
		562.5	-119.312	562.5	-119.312
				562.5	-119.312
		563.965	-98.2667	563.965	-113.036
		563.965	-113.036	563.965	-113.036
				563.965	-113.036
		565.43	-88.4264	565.43	-112.694
		565.43	-112.694	565.43	-112.694
				565.43	-112.694
		566.895	-101.593	566.895	-133.176
		566.895	-133.176	566.895	-133.176
				566.895	-133.176
		568.359	-105.272	568.359	-113.696
		568.359	-113.696	568.359	-113.696
				568.359	-113.696
		569.824	-93.7237	569.824	-116.882
		569.824	-116.882	569.824	-116.882
				569.824	-116.882
		571.289	-93.3949	571.289	-113.659
		571.289	-113.659	571.289	-113.659
				571.289	-113.659
		572.754	-103.414	572.754	-110.22
		572.754	-110.22	572.754	-110.22
				572.754	-110.22
574.219	-39.1148			574.219	-113.387
574.219	-113.387			574.219	-113.387
				574.219	-113.387
		575.684	-91.6199	575.684	-115.985
		575.684	-115.985	575.684	-115.985
				575.684	-115.985
		577.148	-89.7055	577.148	-114.155
		577.148	-114.155	577.148	-114.155
				577.148	-114.155
		578.613	-93.5976	578.613	-118.936
		578.613	-118.936	578.613	-118.936
				578.613	-118.936
		580.078	-86.4942	580.078	-126.142
		580.078	-126.142	580.078	-126.142
				580.078	-126.142
		581.543	-100.2	581.543	-115.992
		581.543	-115.992	581.543	-115.992
				581.543	-115.992
		583.008	-96.3484	583.008	-130.071
		583.008	-130.071	583.008	-130.071
				583.008	-130.071
		584.473	-99.3671	584.473	-110.92
		584.473	-110.92	584.473	-110.92
				584.473	-110.92
		585.938	-94.9131	585.938	-116.186
		585.938	-116.186	585.938	-116.186
				585.938	-116.186
		587.402	-92.0265	587.402	-118.046
		587.402	-118.046	587.402	-118.046
				587.402	-118.046
		588.867	-89.23	588.867	-112.032
		588.867	-112.032	588.867	-112.032
				588.867	-112.032
590.332	-39.2036			590.332	-110.065
590.332	-110.065			590.332	-110.065
				590.332	-110.065
		591.797	-90.1631	591.797	-117.713
		591.797	-117.713	591.797	-117.713
				591.797	-117.713
		593.262	-96.5878	593.262	-116.6
		593.262	-116.6	593.262	-116.6
				593.262	-116.6
		594.727	-95.5905	594.727	-128.406
		594.727	-128.406	594.727	-128.406
				594.727	-128.406
		596.191	-95.0806	596.191	-129.606
		596.191	-129.606	596.191	-129.606
				596.191	-129.606
		597.656	-95.5047	597.656	-120.62
		597.656	-120.62	597.656	-120.62
				597.656	-120.62
		599.121	-88.5194	599.121	-125.18
		599.121	-125.18	599.121	-125.18
				599.121	-125.18
		600.586	-94.0852	600.586	-108.413
		600.586	-108.413	600.586	-108.413
				600.586	-108.413
		602.051	-86.0499	602.051	-122.85
		602.051	-122.85	602.051	-122.85
				602.051	-122.85
		603.516	-92.5847	603.516	-117.285
		603.516	-117.285	603.516	-117.285
				603.516	-117.285
		604.98	-97.5488	604.98	-108.389
		604.98	-108.389	604.98	-108.389
				604.98	-108.389
		606.445	-85.5742	606.445	-117.684
		606.445	-117.684	606.445	-117.684
				606.445	-117.684
607.91	-39.228			607.91	-105.948
607.91	-105.948			607.91	-105.948
				607.91	-105.948
		609.375	-99.6575	609.375	-111.665
		609.375	-111.665	609.375	-111.665
				609.375	-111.665
		610.84	-100.765	610.84	-114.155
		610.84	-114.155	610.84	-114.155
				610.84	-114.155
		612.305	-90.3389	612.305	-123.445
		612.305	-123.445	612.305	-123.445
				612.305	-123.445
		613.77	-95.9037	613.77	-118.155
		613.77	-118.155	613.77	-118.155
				613.77	-118.155
		615.234	-88.8423	615.234	-108.045
		615.234	-108.045	615.234	-108.045
				615.234	-108.045
		616.699	-96.6758	616.699	-115.241
		616.699	-115.241	616.699	-115.241
				616.699	-115.241
		618.164	-91.5892	618.164	-107.998
		618.164	-107.998	618.164	-107.998
				618.164	-107.998
		619.629	-91.2828	619.629	-108.477
		619.629	-108.477	619.629	-108.477
				619.629	-108.477
		621.094	-92.6779	621.094	-125.616
		621.094	-125.616	621.094	-125.616
				621.094	-125.616
		622.559	-101.027	622.559	-111.99
		622.559	-111.99	622.559	-111.99
				622.559	-111.99
		624.023	-96.45	624.023	-123.743
		624.023	-123.743	624.023	-123.743
				624.023	-123.743
625.488	-39.2903			625.488	-112.043
625.488	-112.043			625.488	-112.043
				625.488	-112.043
		626.953	-94.2461	626.953	-109.977
		626.953	-109.977	626.953	-109.977
				626.953	-109.977
		628.418	-95.6207	628.418	-114.536
		628.418	-114.536	628.418	-114.536
				628.418	-114.536
		629.883	-96.081	629.883	-117.793
		629.883	-117.793	629.883	-117.793
				629.883	-117.793
		631.348	-88.3682	631.348	-111.414
		631.348	-111.414	631.348	-111.414
				631.348	-111.414
		632.813	-100.442	632.813	-112.608
		632.813	-112.608	632.813	-112.608
				632.813	-112.608
		634.277	-88.0459	634.277	-114.785
		634.277	-114.785	634.277	-114.785
				634.277	-114.785
		635.742	-86.0803	635.742	-111.809
		635.742	-111.809	635.742	-111.809
				635.742	-111.809
		637.207	-94.6077	637.207	-115.644
		637.207	-115.644	637.207	-115.644
				637.207	-115.644
		638.672	-89.9253	638.672	-107.28
		638.672	-107.28	638.672	-107.28
				638.672	-107.28
		640.137	-86.2852	640.137	-107.822
		640.137	-107.822	640.137	-107.822
				640.137	-107.822
		641.602	-90.9827	641.602	-114.923
		641.602	-114.923	641.602	-114.923
				641.602	-114.923
		643.066	-91.3926	643.066	-122.553
		643.066	-122.553	643.066	-122.553
				643.066	-122.553
644.531	-39.3755			644.531	-108.352
644.531	-108.352			644.531	-108.352
				644.531	-108.352
		645.996	-95.4815	645.996	-130.225
		645.996	-130.225	645.996	-130.225
				645.996	-130.225
		647.461	-94.3003	647.461	-119.625
		647.461	-119.625	647.461	-119.625
				647.461	-119.625
		648.926	-90.5645	648.926	-109.927
		648.926	-109.927	648.926	-109.927
				648.926	-109.927
		650.391	-99.5677	650.391	-116.647
		650.391	-116.647	650.391	-116.647
				650.391	-116.647
		651.855	-91.3593	651.855	-115.856
		651.855	-115.856	651.855	-115.856
				651.855	-115.856
		653.32	-90.249	653.32	-121.927
		653.32	-121.927	653.32	-121.927
				653.32	-121.927
		654.785	-91.5332	654.785	-116.397
		654.785	-116.397	654.785	-116.397
				654.785	-116.397
		656.25	-91.609	656.25	-112.133
		656.25	-112.133	656.25	-112.133
				656.25	-112.133
		657.715	-90.9563	657.715	-113.185
		657.715	-113.185	657.715	-113.185
				657.715	-113.185
		659.18	-94.7128	659.18	-116.732
		659.18	-116.732	659.18	-116.732
				659.18	-116.732
		660.645	-90.254	660.645	-116.799
		660.645	-116.799	660.645	-116.799
				660.645	-116.799
		662.109	-90.5091	662.109	-118.84
		662.109	-118.84	662.109	-118.84
				662.109	-118.84
663.574	-39.4803			663.574	-113.355
663.574	-113.355			663.574	-113.355
				663.574	-113.355
		665.039	-95.9751	665.039	-115.606
		665.039	-115.606	665.039	-115.606
				665.039	-115.606
		666.504	-93.0447	666.504	-121.849
		666.504	-121.849	666.504	-121.849
				666.504	-121.849
		667.969	-102.244	667.969	-122.574
		667.969	-122.574	667.969	-122.574
				667.969	-122.574
		669.434	-111.208	669.434	-114.757
		669.434	-114.757	669.434	-114.757
				669.434	-114.757
		670.898	-94.9623	670.898	-110.634
		670.898	-110.634	670.898	-110.634
				670.898	-110.634
		672.363	-97.2353	672.363	-111.076
		672.363	-111.076	672.363	-111.076
				672.363	-111.076
		673.828	-94.3567	673.828	-120.991
		673.828	-120.991	673.828	-120.991
				673.828	-120.991
		675.293	-91.5174	675.293	-121.904
		675.293	-121.904	675.293	-121.904
				675.293	-121.904
		676.758	-107.746	676.758	-116.6
		676.758	-116.6	676.758	-116.6
				676.758	-116.6
		678.223	-90.2574	678.223	-108.1
		678.223	-108.1	678.223	-108.1
				678.223	-108.1
		679.688	-96.0768	679.688	-120.66
		679.688	-120.66	679.688	-120.66
				679.688	-120.66
		681.152	-93.2689	681.152	-110.663
		681.152	-110.663	681.152	-110.663
				681.152	-110.663
682.617	-39.5494			682.617	-122.168
682.617	-122.168			682.617	-122.168
				682.617	-122.168
		684.082	-88.1037	684.082	-117.7
		684.082	-117.7	684.082	-117.7
				684.082	-117.7
		685.547	-90.2842	685.547	-110.271
		685.547	-110.271	685.547	-110.271
				685.547	-110.271
		687.012	-89.3712	687.012	-109.132
		687.012	-109.132	687.012	-109.132
				687.012	-109.132
		688.477	-94.2943	688.477	-120.764
		688.477	-120.764	688.477	-120.764
				688.477	-120.764
		689.941	-101.97	689.941	-112.42
		689.941	-112.42	689.941	-112.42
				689.941	-112.42
		691.406	-98.6462	691.406	-105.688
		691.406	-105.688	691.406	-105.688
				691.406	-105.688
		692.871	-96.6569	692.871	-109.409
		692.871	-109.409	692.871	-109.409
				692.871	-109.409
		694.336	-92.3478	694.336	-110.226
		694.336	-110.226	694.336	-110.226
				694.336	-110.226
		695.801	-90.4729	695.801	-106.832
		695.801	-106.832	695.801	-106.832
				695.801	-106.832
		697.266	-96.8932	697.266	-127.488
		697.266	-127.488	697.266	-127.488
				697.266	-127.488
		698.73	-95.211	698.73	-112.511
		698.73	-112.511	698.73	-112.511
				698.73	-112.511
		700.195	-95.4749	700.195	-110.076
		700.195	-110.076	700.195	-110.076
				700.195	-110.076
701.66	-39.6255			701.66	-115.801
701.66	-115.801			701.66	-115.801
				701.66	-115.801
		703.125	-92.4404	703.125	-118.296
		703.125	-118.296	703.125	-118.296
				703.125	-118.296
		704.59	-90.3163	704.59	-114.817
		704.59	-114.817	704.59	-114.817
				704.59	-114.817
		706.055	-91.8251	706.055	-117.801
		706.055	-117.801	706.055	-117.801
				706.055	-117.801
		707.52	-92.0933	707.52	-106.61
		707.52	-106.61	707.52	-106.61
				707.52	-106.61
		708.984	-97.1317	708.984	-118.389
		708.984	-118.389	708.984	-118.389
				708.984	-118.389
		710.449	-90.7646	710.449	-108.041
		710.449	-108.041	710.449	-108.041
				710.449	-108.041
		711.914	-98.4648	711.914	-117.879
		711.914	-117.879	711.914	-117.879
				711.914	-117.879
		713.379	-93.1858	713.379	-120.317
		713.379	-120.317	713.379	-120.317
				713.379	-120.317
		714.844	-95.8206	714.844	-112.588
		714.844	-112.588	714.844	-112.588
				714.844	-112.588
		716.309	-86.469	716.309	-115.789
		716.309	-115.789	716.309	-115.789
				716.309	-115.789
		717.773	-95.0097	717.773	-120.531
		717.773	-120.531	717.773	-120.531
				717.773	-120.531
		719.238	-92.5006	719.238	-108.76
		719.238	-108.76	719.238	-108.76
				719.238	-108.76
		720.703	-86.5099	720.703	-124.858
		720.703	-124.858	720.703	-124.858
				720.703	-124.858
		722.168	-89.834	722.168	-113.618
		722.168	-113.618	722.168	-113.618
				722.168	-113.618
723.633	-39.7347			723.633	-124.004
723.633	-124.004			723.633	-124.004
				723.633	-124.004
		725.098	-96.5151	725.098	-116.199
		725.098	-116.199	725.098	-116.199
				725.098	-116.199
		726.563	-96.322	726.563	-112.585
		726.563	-112.585	726.563	-112.585
				726.563	-112.585
		728.027	-93.1383	728.027	-115.109
		728.027	-115.109	728.027	-115.109
				728.027	-115.109
		729.492	-93.8947	729.492	-119.708
		729.492	-119.708	729.492	-119.708
				729.492	-119.708
		730.957	-86.1053	730.957	-112.422
		730.957	-112.422	730.957	-112.422
				730.957	-112.422
		732.422	-99.2041	732.422	-107.245
		732.422	-107.245	732.422	-107.245
				732.422	-107.245
		733.887	-97.3753	733.887	-108.2
		733.887	-108.2	733.887	-108.2
				733.887	-108.2
		735.352	-89.7228	735.352	-114.85
		735.352	-114.85	735.352	-114.85
				735.352	-114.85
		736.816	-102.23	736.816	-106.741
		736.816	-106.741	736.816	-106.741
				736.816	-106.741
		738.281	-88.1874	738.281	-114.381
		738.281	-114.381	738.281	-114.381
				738.281	-114.381
		739.746	-95.3315	739.746	-111.72
		739.746	-111.72	739.746	-111.72
				739.746	-111.72
		741.211	-91.5565	741.211	-107.655
		741.211	-107.655	741.211	-107.655
				741.211	-107.655
		742.676	-90.607	742.676	-113.047
		742.676	-113.047	742.676	-113.047
				742.676	-113.047
744.141	-39.7863			744.141	-114.402
744.141	-114.402			744.141	-114.402
				744.141	-114.402
		745.605	-86.6136	745.605	-113.011
		745.605	-113.011	745.605	-113.011
				745.605	-113.011
		747.07	-105.705	747.07	-113.749
		747.07	-113.749	747.07	-113.749
				747.07	-113.749
		748.535	-95.2936	748.535	-112.566
		748.535	-112.566	748.535	-112.566
				748.535	-112.566
		750	-101.537	750	-124.594
		750	-124.594	750	-124.594
				750	-124.594
		751.465	-94.2601	751.465	-112.772
		751.465	-112.772	751.465	-112.772
				751.465	-112.772
		752.93	-101.921	752.93	-116.884
		752.93	-116.884	752.93	-116.884
				752.93	-116.884
		754.395	-90.6071	754.395	-111.927
		754.395	-111.927	754.395	-111.927
				754.395	-111.927
		755.859	-88.0481	755.859	-107.99
		755.859	-107.99	755.859	-107.99
				755.859	-107.99
		757.324	-90.9789	757.324	-108.939
		757.324	-108.939	757.324	-108.939
				757.324	-108.939
		758.789	-91.1436	758.789	-109.738
		758.789	-109.738	758.789	-109.738
				758.789	-109.738
		760.254	-94.101	760.254	-110.664
		760.254	-110.664	760.254	-110.664
				760.254	-110.664
		761.719	-89.0264	761.719	-109.141
		761.719	-109.141	761.719	-109.141
				761.719	-109.141
		763.184	-94.6218	763.184	-109.205
		763.184	-109.205	763.184	-109.205
				763.184	-109.205
		764.648	-92.8487	764.648	-119.269
		764.648	-119.269	764.648	-119.269
				764.648	-119.269
766.113	-39.8846			766.113	-115.792
766.113	-115.792			766.113	-115.792
				766.113	-115.792
		767.578	-97.3148	767.578	-108.288
		767.578	-108.288	767.578	-108.288
				767.578	-108.288
		769.043	-89.141	769.043	-112.158
		769.043	-112.158	769.043	-112.158
				769.043	-112.158
		770.508	-89.7095	770.508	-111.339
		770.508	-111.339	770.508	-111.339
				770.508	-111.339
		771.973	-98.74	771.973	-140.471
		771.973	-140.471	771.973	-140.471
				771.973	-140.471
		773.438	-102.757	773.438	-109.265
		773.438	-109.265	773.438	-109.265
				773.438	-109.265
		774.902	-96.0706	774.902	-120.243
		774.902	-120.243	774.902	-120.243
				774.902	-120.243
		776.367	-93.2848	776.367	-126.781
		776.367	-126.781	776.367	-126.781
				776.367	-126.781
		777.832	-98.3535	777.832	-111.179
		777.832	-111.179	777.832	-111.179
				777.832	-111.179
		779.297	-93.2391	779.297	-115.327
		779.297	-115.327	779.297	-115.327
				779.297	-115.327
		780.762	-98.6413	780.762	-111.71
		780.762	-111.71	780.762	-111.71
				780.762	-111.71
		782.227	-94.0549	782.227	-111.678
		782.227	-111.678	782.227	-111.678
				782.227	-111.678
		783.691	-89.8669	783.691	-120.303
		783.691	-120.303	783.691	-120.303
				783.691	-120.303
		785.156	-89.7689	785.156	-114.602
		785.156	-114.602	785.156	-114.602
				785.156	-114.602
		786.621	-90.9771	786.621	-115.355
		786.621	-115.355	786.621	-115.355
				786.621	-115.355
788.086	-39.9753			788.086	-115.116
788.086	-115.116			788.086	-115.116
				788.086	-115.116
		789.551	-90.5868	789.551	-112.989
		789.551	-112.989	789.551	-112.989
				789.551	-112.989
		791.016	-90.9053	791.016	-119.203
		791.016	-119.203	791.016	-119.203
				791.016	-119.203
		792.48	-92.517	792.48	-116.607
		792.48	-116.607	792.48	-116.607
				792.48	-116.607
		793.945	-95.9771	793.945	-126.009
		793.945	-126.009	793.945	-126.009
				793.945	-126.009
		795.41	-100.74	795.41	-110.72
		795.41	-110.72	795.41	-110.72
				795.41	-110.72
		796.875	-96.1008	796.875	-112.791
		796.875	-112.791	796.875	-112.791
				796.875	-112.791
		798.34	-91.8603	798.34	-117.585
		798.34	-117.585	798.34	-117.585
				798.34	-117.585
		799.805	-92.4559	799.805	-117.294
		799.805	-117.294	799.805	-117.294
				799.805	-117.294
		801.27	-97.9664	801.27	-109.117
		801.27	-109.117	801.27	-109.117
				801.27	-109.117
		802.734	-97.9397	802.734	-109.361
		802.734	-109.361	802.734	-109.361
				802.734	-109.361
		804.199	-96.3993	804.199	-123.725
		804.199	-123.725	804.199	-123.725
				804.199	-123.725
		805.664	-88.774	805.664	-107.99
		805.664	-107.99	805.664	-107.99
				805.664	-107.99
		807.129	-92.1688	807.129	-114.043
		807.129	-114.043	807.129	-114.043
				807.129	-114.043
		808.594	-89.4888	808.594	-106.655
		808.594	-106.655	808.594	-106.655
				808.594	-106.655
		810.059	-95.8078	810.059	-109.337
		810.059	-109.337	810.059	-109.337
				810.059	-109.337
811.523	-40.0479			811.523	-108.388
811.523	-108.388			811.523	-108.388
				811.523	-108.388
		812.988	-91.9353	812.988	-111.395
		812.988	-111.395	812.988	-111.395
				812.988	-111.395
		814.453	-97.2927	814.453	-120.279
		814.453	-120.279	814.453	-120.279
				814.453	-120.279
		815.918	-97.8567	815.918	-108.897
		815.918	-108.897	815.918	-108.897
				815.918	-108.897
		817.383	-93.2557	817.383	-116.294
		817.383	-116.294	817.383	-116.294
				817.383	-116.294
		818.848	-95.9308	818.848	-119.361
		818.848	-119.361	818.848	-119.361
				818.848	-119.361
		820.313	-90.7546	820.313	-114.343
		820.313	-114.343	820.313	-114.343
				820.313	-114.343
		821.777	-88.9556	821.777	-119.331
		821.777	-119.331	821.777	-119.331
				821.777	-119.331
		823.242	-91.9746	823.242	-119.696
		823.242	-119.696	823.242	-119.696
				823.242	-119.696
		824.707	-95.7441	824.707	-116.846
		824.707	-116.846	824.707	-116.846
				824.707	-116.846
		826.172	-94.8947	826.172	-109.31
		826.172	-109.31	826.172	-109.31
				826.172	-109.31
		827.637	-93.2205	827.637	-108.53
		827.637	-108.53	827.637	-108.53
				827.637	-108.53
		829.102	-95.3314	829.102	-106.619
		829.102	-106.619	829.102	-106.619
				829.102	-106.619
		830.566	-102.74	830.566	-118.491
		830.566	-118.491	830.566	-118.491
				830.566	-118.491
		832.031	-94.7679	832.031	-107.945
		832.031	-107.945	832.031	-107.945
				832.031	-107.945
		833.496	-89.7312	833.496	-112.357
		833.496	-112.357	833.496	-112.357
				833.496	-112.357
834.961	-40.1289			834.961	-117.419
834.961	-117.419			834.961	-117.419
				834.961	-117.419
		836.426	-86.5174	836.426	-125.299
		836.426	-125.299	836.426	-125.299
				836.426	-125.299
		837.891	-86.9616	837.891	-109.856
		837.891	-109.856	837.891	-109.856
				837.891	-109.856
		839.355	-94.8632	839.355	-111.618
		839.355	-111.618	839.355	-111.618
				839.355	-111.618
		840.82	-98.2994	840.82	-126.581
		840.82	-126.581	840.82	-126.581
				840.82	-126.581
		842.285	-92.6125	842.285	-109.137
		842.285	-109.137	842.285	-109.137
				842.285	-109.137
		843.75	-95.3845	843.75	-111.114
		843.75	-111.114	843.75	-111.114
				843.75	-111.114
		845.215	-90.1771	845.215	-121.811
		845.215	-121.811	845.215	-121.811
				845.215	-121.811
		846.68	-98.0033	846.68	-111.504
		846.68	-111.504	846.68	-111.504
				846.68	-111.504
		848.145	-98.3225	848.145	-114.199
		848.145	-114.199	848.145	-114.199
				848.145	-114.199
		849.609	-92.1493	849.609	-117.93
		849.609	-117.93	849.609	-117.93
				849.609	-117.93
		851.074	-92.3022	851.074	-108.813
		851.074	-108.813	851.074	-108.813
				851.074	-108.813
		852.539	-92.5443	852.539	-119.548
		852.539	-119.548	852.539	-119.548
				852.539	-119.548
		854.004	-98.1645	854.004	-109.864
		854.004	-109.864	854.004	-109.864
				854.004	-109.864
		855.469	-91.3501	855.469	-110.661
		855.469	-110.661	855.469	-110.661
				855.469	-110.661
		856.934	-98.2623	856.934	-109.074
		856.934	-109.074	856.934	-109.074
				856.934	-109.074
		858.398	-90.4275	858.398	-111.768
		858.398	-111.768	858.398	-111.768
				858.398	-111.768
859.863	-40.2329			859.863	-118.667
859.863	-118.667			859.863	-118.667
				859.863	-118.667
		861.328	-90.1345	861.328	-108.872
		861.328	-108.872	861.328	-108.872
				861.328	-108.872
		862.793	-95.3613	862.793	-123.151
		862.793	-123.151	862.793	-123.151
				862.793	-123.151
		864.258	-95.2749	864.258	-121.291
		864.258	-121.291	864.258	-121.291
				864.258	-121.291
		865.723	-94.1536	865.723	-113.236
		865.723	-113.236	865.723	-113.236
				865.723	-113.236
		867.188	-89.5268	867.188	-112.16
		867.188	-112.16	867.188	-112.16
				867.188	-112.16
		868.652	-96.9043	868.652	-112.634
		868.652	-112.634	868.652	-112.634
				868.652	-112.634
		870.117	-92.1167	870.117	-119.333
		870.117	-119.333	870.117	-119.333
				870.117	-119.333
		871.582	-101.879	871.582	-109.11
		871.582	-109.11	871.582	-109.11
				871.582	-109.11
		873.047	-90.9727	873.047	-112.105
		873.047	-112.105	873.047	-112.105
				873.047	-112.105
		874.512	-97.3008	874.512	-110.908
		874.512	-110.908	874.512	-110.908
				874.512	-110.908
		875.977	-90.3471	875.977	-123.887
		875.977	-123.887	875.977	-123.887
				875.977	-123.887
		877.441	-89.1299	877.441	-114.821
		877.441	-114.821	877.441	-114.821
				877.441	-114.821
		878.906	-99.1971	878.906	-119.811
		878.906	-119.811	878.906	-119.811
				878.906	-119.811
		880.371	-90.8695	880.371	-112.755
		880.371	-112.755	880.371	-112.755
				880.371	-112.755
		881.836	-93.1029	881.836	-109.637
		881.836	-109.637	881.836	-109.637
				881.836	-109.637
		883.301	-95.5009	883.301	-106.903
		883.301	-106.903	883.301	-106.903
				883.301	-106.903
884.766	-40.3747			884.766	-111.242
884.766	-111.242			884.766	-111.242
				884.766	-111.242
		886.23	-89.6906	886.23	-109.7
		886.23	-109.7	886.23	-109.7
				886.23	-109.7
		887.695	-97.4701	887.695	-116.275
		887.695	-116.275	887.695	-116.275
				887.695	-116.275
		889.16	-99.3126	889.16	-116.206
		889.16	-116.206	889.16	-116.206
				889.16	-116.206
		890.625	-94.9754	890.625	-114.794
		890.625	-114.794	890.625	-114.794
				890.625	-114.794
		892.09	-93.9591	892.09	-111.737
		892.09	-111.737	892.09	-111.737
				892.09	-111.737
		893.555	-95.8993	893.555	-116.63
		893.555	-116.63	893.555	-116.63
				893.555	-116.63
		895.02	-92.8587	895.02	-112.331
		895.02	-112.331	895.02	-112.331
				895.02	-112.331
		896.484	-89.0667	896.484	-118.981
		896.484	-118.981	896.484	-118.981
				896.484	-118.981
		897.949	-97.6002	897.949	-110.265
		897.949	-110.265	897.949	-110.265
				897.949	-110.265
		899.414	-93.2151	899.414	-116.441
		899.414	-116.441	899.414	-116.441
				899.414	-116.441
		900.879	-96.613	900.879	-112.259
		900.879	-112.259	900.879	-112.259
				900.879	-112.259
		902.344	-108.586	902.344	-110.261
		902.344	-110.261	902.344	-110.261
				902.344	-110.261
		903.809	-93.835	903.809	-114.171
		903.809	-114.171	903.809	-114.171
				903.809	-114.171
		905.273	-95.1391	905.273	-115.502
		905.273	-115.502	905.273	-115.502
				905.273	-115.502
		906.738	-101.259	906.738	-111.425
		906.738	-111.425	906.738	-111.425
				906.738	-111.425
		908.203	-94.2733	908.203	-109.176
		908.203	-109.176	908.203	-109.176
				908.203	-109.176
		909.668	-101.983	909.668	-108.304
		909.668	-108.304	909.668	-108.304
				909.668	-108.304
911.133	-40.4537			911.133	-109.511
911.133	-109.511			911.133	-109.511
				911.133	-109.511
		912.598	-97.4207	912.598	-112.008
		912.598	-112.008	912.598	-112.008
				912.598	-112.008
		914.063	-88.8916	914.063	-111.241
		914.063	-111.241	914.063	-111.241
				914.063	-111.241
		915.527	-93.074	915.527	-109.722
		915.527	-109.722	915.527	-109.722
				915.527	-109.722
		916.992	-107.25	916.992	-110.209
		916.992	-110.209	916.992	-110.209
				916.992	-110.209
		918.457	-95.3087	918.457	-111.152
		918.457	-111.152	918.457	-111.152
				918.457	-111.152
		919.922	-97.2301	919.922	-107.726
		919.922	-107.726	919.922	-107.726
				919.922	-107.726
		921.387	-95.571	921.387	-106.425
		921.387	-106.425	921.387	-106.425
				921.387	-106.425
				922.852	-110.495
				922.852	-110.495
				922.852	-110.495
		924.316	-94.2942	924.316	-111.091
		924.316	-111.091	924.316	-111.091
				924.316	-111.091
		925.781	-89.6158	925.781	-109.328
		925.781	-109.328	925.781	-109.328
				925.781	-109.328
		927.246	-87.4189	927.246	-111.862
		927.246	-111.862	927.246	-111.862
				927.246	-111.862
		928.711	-102.536	928.711	-110.594
		928.711	-110.594	928.711	-110.594
				928.711	-110.594
		930.176	-106.879	930.176	-110.005
		930.176	-110.005	930.176	-110.005
				930.176	-110.005
		931.641	-96.557	931.641	-107.283
		931.641	-107.283	931.641	-107.283
				931.641	-107.283
		933.105	-96.5244	933.105	-112.554
		933.105	-112.554	933.105	-112.554
				933.105	-112.554
		934.57	-88.7714	934.57	-107.038
		934.57	-107.038	934.57	-107.038
				934.57	-107.038
		936.035	-99.3392	936.035	-111.351
		936.035	-111.351	936.035	-111.351
				936.035	-111.351
937.5	-40.5695			937.5	-108.318
937.5	-108.318			937.5	-108.318
				937.5	-108.318
		938.965	-91.267	938.965	-118.348
		938.965	-118.348	938.965	-118.348
				938.965	-118.348
		940.43	-93.6161	940.43	-112.059
		940.43	-112.059	940.43	-112.059
				940.43	-112.059
		941.895	-100.449	941.895	-116.152
		941.895	-116.152	941.895	-116.152
				941.895	-116.152
		943.359	-93.472	943.359	-114.887
		943.359	-114.887	943.359	-114.887
				943.359	-114.887
		944.824	-99.2141	944.824	-109.39
		944.824	-109.39	944.824	-109.39
				944.824	-109.39
		946.289	-95.3733	946.289	-112.352
		946.289	-112.352	946.289	-112.352
				946.289	-112.352
		947.754	-92.1781	947.754	-111.476
		947.754	-111.476	947.754	-111.476
				947.754	-111.476
		949.219	-93.8887	949.219	-130.584
		949.219	-130.584	949.219	-130.584
				949.219	-130.584
		950.684	-95.2564	950.684	-107.352
		950.684	-107.352	950.684	-107.352
				950.684	-107.352
		952.148	-94.6347	952.148	-117.719
		952.148	-117.719	952.148	-117.719
				952.148	-117.719
		953.613	-95.5808	953.613	-116.025
		953.613	-116.025	953.613	-116.025
				953.613	-116.025
		955.078	-95.0605	955.078	-112.034
		955.078	-112.034	955.078	-112.034
				955.078	-112.034
		956.543	-87.1015	956.543	-113.42
		956.543	-113.42	956.543	-113.42
				956.543	-113.42
		958.008	-93.6829	958.008	-112.396
		958.008	-112.396	958.008	-112.396
				958.008	-112.396
		959.473	-92.4975	959.473	-118.655
		959.473	-118.655	959.473	-118.655
				959.473	-118.655
		960.938	-93.4754	960.938	-111.747
		960.938	-111.747	960.938	-111.747
				960.938	-111.747
		962.402	-94.1279	962.402	-112.609
		962.402	-112.609	962.402	-112.609
				962.402	-112.609
		963.867	-95.1836	963.867	-125.32
		963.867	-125.32	963.867	-125.32
				963.867	-125.32
965.332	-40.7176			965.332	-107.915
965.332	-107.915			965.332	-107.915
				965.332	-107.915
		966.797	-98.8226	966.797	-116.767
		966.797	-116.767	966.797	-116.767
				966.797	-116.767
		968.262	-96.8723	968.262	-115.38
		968.262	-115.38	968.262	-115.38
				968.262	-115.38
		969.727	-95.3801	969.727	-112.326
		969.727	-112.326	969.727	-112.326
				969.727	-112.326
		971.191	-95.3116	971.191	-113.404
		971.191	-113.404	971.191	-113.404
				971.191	-113.404
				972.656	-106.658
				972.656	-106.658
				972.656	-106.658
		974.121	-104.523	974.121	-114.908
		974.121	-114.908	974.121	-114.908
				974.121	-114.908
		975.586	-99.9679	975.586	-106.539
		975.586	-106.539	975.586	-106.539
				975.586	-106.539
		977.051	-91.4864	977.051	-116.557
		977.051	-116.557	977.051	-116.557
				977.051	-116.557
		978.516	-94.2181	978.516	-106.263
		978.516	-106.263	978.516	-106.263
				978.516	-106.263
		979.98	-109.394	979.98	-125.401
		979.98	-125.401	979.98	-125.401
				979.98	-125.401
		981.445	-102.028	981.445	-113.557
		981.445	-113.557	981.445	-113.557
				981.445	-113.557
		982.91	-101.688	982.91	-115.985
		982.91	-115.985	982.91	-115.985
				982.91	-115.985
		984.375	-100.919	984.375	-124.927
		984.375	-124.927	984.375	-124.927
				984.375	-124.927
		985.84	-100.304	985.84	-117.722
		985.84	-117.722	985.84	-117.722
				985.84	-117.722
		987.305	-103.777	987.305	-117.306
		987.305	-117.306	987.305	-117.306
				987.305	-117.306
		988.77	-96.4536	988.77	-110.6
		988.77	-110.6	988.77	-110.6
				988.77	-110.6
		990.234	-91.288	990.234	-117.376
		990.234	-117.376	990.234	-117.376
				990.234	-117.376
		991.699	-104.648	991.699	-114.188
		991.699	-114.188	991.699	-114.188
				991.699	-114.188
993.164	-40.8668			993.164	-123.173
993.164	-123.173			993.164	-123.173
				993.164	-123.173
		994.629	-95.4134	994.629	-109.122
		994.629	-109.122	994.629	-109.122
				994.629	-109.122
		996.094	-100.166	996.094	-111.516
		996.094	-111.516	996.094	-111.516
				996.094	-111.516
		997.559	-94.3637	997.559	-107.695
		997.559	-107.695	997.559	-107.695
				997.559	-107.695
		999.023	-93.8946	999.023	-117.11
		999.023	-117.11	999.023	-117.11
				999.023	-117.11
		1000.49	-100.571	1000.49	-116.509
		1000.49	-116.509	1000.49	-116.509
				1000.49	-116.509
		1001.95	-95.2829	1001.95	-108.713
		1001.95	-108.713	1001.95	-108.713
				1001.95	-108.713
		1003.42	-90.064	1003.42	-118.623
		1003.42	-118.623	1003.42	-118.623
				1003.42	-118.623
		1004.88	-91.4257	1004.88	-114.92
		1004.88	-114.92	1004.88	-114.92
				1004.88	-114.92
		1006.35	-96.7606	1006.35	-107.847
		1006.35	-107.847	1006.35	-107.847
				1006.35	-107.847
		1007.81	-88.9912	1007.81	-105.891
		1007.81	-105.891	1007.81	-105.891
				1007.81	-105.891
		1009.28	-98.7797	1009.28	-112.397
		1009.28	-112.397	1009.28	-112.397
				1009.28	-112.397
		1010.74	-92.6032	1010.74	-116.029
		1010.74	-116.029	1010.74	-116.029
				1010.74	-116.029
		1012.21	-99.3713	1012.21	-120.12
		1012.21	-120.12	1012.21	-120.12
				1012.21	-120.12
		1013.67	-93.543	1013.67	-124.355
		1013.67	-124.355	1013.67	-124.355
				1013.67	-124.355
		1015.14	-98.9785	1015.14	-118.625
		1015.14	-118.625	1015.14	-118.625
				1015.14	-118.625
		1016.6	-97.3096	1016.6	-111.402
		1016.6	-111.402	1016.6	-111.402
				1016.6	-111.402
		1018.07	-90.3233	1018.07	-115.231
		1018.07	-115.231	1018.07	-115.231
				1018.07	-115.231
		1019.53	-96.8301	1019.53	-115.71
		1019.53	-115.71	1019.53	-115.71
				1019.53	-115.71
		1021	-95.1905	1021	-116.247
		1021	-116.247	1021	-116.247
				1021	-116.247
1022.46	-41.0067			1022.46	-111.435
1022.46	-111.435			1022.46	-111.435
				1022.46	-111.435
		1023.93	-92.2955	1023.93	-123.707
		1023.93	-123.707	1023.93	-123.707
				1023.93	-123.707
		1025.39	-90.6009	1025.39	-111.942
		1025.39	-111.942	1025.39	-111.942
				1025.39	-111.942
		1026.86	-101.423	1026.86	-111.807
		1026.86	-111.807	1026.86	-111.807
				1026.86	-111.807
		1028.32	-90.7404	1028.32	-109.09
		1028.32	-109.09	1028.32	-109.09
				1028.32	-109.09
		1029.79	-91.5557	1029.79	-114.781
		1029.79	-114.781	1029.79	-114.781
				1029.79	-114.781
		1031.25	-96.602	1031.25	-112.397
		1031.25	-112.397	1031.25	-112.397
				1031.25	-112.397
		1032.71	-87.3124	1032.71	-121.106
		1032.71	-121.106	1032.71	-121.106
				1032.71	-121.106
		1034.18	-97.064	1034.18	-113.438
		1034.18	-113.438	1034.18	-113.438
				1034.18	-113.438
		1035.64	-94.5104	1035.64	-114.463
		1035.64	-114.463	1035.64	-114.463
				1035.64	-114.463
		1037.11	-88.9589	1037.11	-120.744
		1037.11	-120.744	1037.11	-120.744
				1037.11	-120.744
		1038.57	-96.5182	1038.57	-113.276
		1038.57	-113.276	1038.57	-113.276
				1038.57	-113.276
		1040.04	-87.8983	1040.04	-112.064
		1040.04	-112.064	1040.04	-112.064
				1040.04	-112.064
		1041.5	-92.8897	1041.5	-105.924
		1041.5	-105.924	1041.5	-105.924
				1041.5	-105.924
		1042.97	-95.454	1042.97	-114.927
		1042.97	-114.927	1042.97	-114.927
				1042.97	-114.927
		1044.43	-89.7191	1044.43	-123.81
		1044.43	-123.81	1044.43	-123.81
				1044.43	-123.81
		1045.9	-94.6678	1045.9	-120.926
		1045.9	-120.926	1045.9	-120.926
				1045.9	-120.926
		1047.36	-104.117	1047.36	-118.002
		1047.36	-118.002	1047.36	-118.002
				1047.36	-118.002
		1048.83	-96.6897	1048.83	-110.082
		1048.83	-110.082	1048.83	-110.082
				1048.83	-110.082
		1050.29	-92.2769	1050.29	-115.425
		1050.29	-115.425	1050.29	-115.425
				1050.29	-115.425
1051.76	-41.1858			1051.76	-112.382
1051.76	-112.382			1051.76	-112.382
				1051.76	-112.382
		1053.22	-108.86	1053.22	-115.204
		1053.22	-115.204	1053.22	-115.204
				1053.22	-115.204
		1054.69	-89.6854	1054.69	-118.129
		1054.69	-118.129	1054.69	-118.129
				1054.69	-118.129
		1056.15	-92.1849	1056.15	-130.524
		1056.15	-130.524	1056.15	-130.524
				1056.15	-130.524
		1057.62	-92.6938	1057.62	-108.496
		1057.62	-108.496	1057.62	-108.496
				1057.62	-108.496
		1059.08	-96.2267	1059.08	-121.682
		1059.08	-121.682	1059.08	-121.682
				1059.08	-121.682
		1060.55	-100.689	1060.55	-122.265
		1060.55	-122.265	1060.55	-122.265
				1060.55	-122.265
		1062.01	-93.993	1062.01	-123.964
		1062.01	-123.964	1062.01	-123.964
				1062.01	-123.964
		1063.48	-99.293	1063.48	-109.959
		1063.48	-109.959	1063.48	-109.959
				1063.48	-109.959
		1064.94	-98.5294	1064.94	-119.035
		1064.94	-119.035	1064.94	-119.035
				1064.94	-119.035
		1066.41	-93.4872	1066.41	-116.518
		1066.41	-116.518	1066.41	-116.518
				1066.41	-116.518
		1067.87	-100.052	1067.87	-111.379
		1067.87	-111.379	1067.87	-111.379
				1067.87	-111.379
		1069.34	-94.4828	1069.34	-117.488
		1069.34	-117.488	1069.34	-117.488
				1069.34	-117.488
		1070.8	-100.373	1070.8	-120.592
		1070.8	-120.592	1070.8	-120.592
				1070.8	-120.592
		1072.27	-94.6248	1072.27	-122.052
		1072.27	-122.052	1072.27	-122.052
				1072.27	-122.052
		1073.73	-98.7553	1073.73	-125.786
		1073.73	-125.786	1073.73	-125.786
				1073.73	-125.786
		1075.2	-91.9572	1075.2	-110.523
		1075.2	-110.523	1075.2	-110.523
				1075.2	-110.523
		1076.66	-89.0584	1076.66	-111.974
		1076.66	-111.974	1076.66	-111.974
				1076.66	-111.974
		1078.13	-95.588	1078.13	-113.509
		1078.13	-113.509	1078.13	-113.509
				1078.13	-113.509
				1079.59	-108.927
				1079.59	-108.927
				1079.59	-108.927
		1081.05	-105.655	1081.05	-110.595
		1081.05	-110.595	1081.05	-110.595
				1081.05	-110.595
1082.52	-41.3098			1082.52	-118.979
1082.52	-118.979			1082.52	-118.979
				1082.52	-118.979
		1083.98	-109.752	1083.98	-112.985
		1083.98	-112.985	1083.98	-112.985
				1083.98	-112.985
		1085.45	-98.0595	1085.45	-115.385
		1085.45	-115.385	1085.45	-115.385
				1085.45	-115.385
		1086.91	-98.9973	1086.91	-113.395
		1086.91	-113.395	1086.91	-113.395
				1086.91	-113.395
		1088.38	-98.4119	1088.38	-108.106
		1088.38	-108.106	1088.38	-108.106
				1088.38	-108.106
		1089.84	-93.3426	1089.84	-115.537
		1089.84	-115.537	1089.84	-115.537
				1089.84	-115.537
		1091.31	-104.156	1091.31	-120.198
		1091.31	-120.198	1091.31	-120.198
				1091.31	-120.198
		1092.77	-103.908	1092.77	-115.013
		1092.77	-115.013	1092.77	-115.013
				1092.77	-115.013
		1094.24	-95.7326	1094.24	-111.574
		1094.24	-111.574	1094.24	-111.574
				1094.24	-111.574
		1095.7	-95.0456	1095.7	-119.369
		1095.7	-119.369	1095.7	-119.369
				1095.7	-119.369
		1097.17	-88.8844	1097.17	-116.961
		1097.17	-116.961	1097.17	-116.961
				1097.17	-116.961
		1098.63	-100.129	1098.63	-112.203
		1098.63	-112.203	1098.63	-112.203
				1098.63	-112.203
		1100.1	-95.9957	1100.1	-108.837
		1100.1	-108.837	1100.1	-108.837
				1100.1	-108.837
		1101.56	-93.0771	1101.56	-131.052
		1101.56	-131.052	1101.56	-131.052
				1101.56	-131.052
		1103.03	-98.1437	1103.03	-106.072
		1103.03	-106.072	1103.03	-106.072
				1103.03	-106.072
		1104.49	-94.6381	1104.49	-118.397
		1104.49	-118.397	1104.49	-118.397
				1104.49	-118.397
		1105.96	-95.707	1105.96	-108.266
		1105.96	-108.266	1105.96	-108.266
				1105.96	-108.266
		1107.42	-93.9989	1107.42	-121.612
		1107.42	-121.612	1107.42	-121.612
				1107.42	-121.612
		1108.89	-98.8877	1108.89	-114.975
		1108.89	-114.975	1108.89	-114.975
				1108.89	-114.975
		1110.35	-102.291	1110.35	-113.593
		1110.35	-113.593	1110.35	-113.593
				1110.35	-113.593
		1111.82	-98.9851	1111.82	-105.455
		1111.82	-105.455	1111.82	-105.455
				1111.82	-105.455
		1113.28	-107.571	1113.28	-116.815
		1113.28	-116.815	1113.28	-116.815
				1113.28	-116.815
1114.75	-41.374			1114.75	-115.003
1114.75	-115.003			1114.75	-115.003
				1114.75	-115.003
		1116.21	-99.0154	1116.21	-117.866
		1116.21	-117.866	1116.21	-117.866
				1116.21	-117.866
		1117.68	-95.7679	1117.68	-113.895
		1117.68	-113.895	1117.68	-113.895
				1117.68	-113.895
		1119.14	-94.3747	1119.14	-118.64
		1119.14	-118.64	1119.14	-118.64
				1119.14	-118.64
		1120.61	-98.0895	1120.61	-114.839
		1120.61	-114.839	1120.61	-114.839
				1120.61	-114.839
		1122.07	-92.7461	1122.07	-128.929
		1122.07	-128.929	1122.07	-128.929
				1122.07	-128.929
		1123.54	-96.0418	1123.54	-121.041
		1123.54	-121.041	1123.54	-121.041
				1123.54	-121.041
		1125	-97.2281	1125	-112.834
		1125	-112.834	1125	-112.834
				1125	-112.834
		1126.46	-99.4107	1126.46	-116.174
		1126.46	-116.174	1126.46	-116.174
				1126.46	-116.174
		1127.93	-93.3111	1127.93	-113.108
		1127.93	-113.108	1127.93	-113.108
				1127.93	-113.108
		1129.39	-91.7101	1129.39	-120.432
		1129.39	-120.432	1129.39	-120.432
				1129.39	-120.432
		1130.86	-104.732	1130.86	-111.6
		1130.86	-111.6	1130.86	-111.6
				1130.86	-111.6
		1132.32	-91.7464	1132.32	-110.55
		1132.32	-110.55	1132.32	-110.55
				1132.32	-110.55
		1133.79	-102.206	1133.79	-111.604
		1133.79	-111.604	1133.79	-111.604
				1133.79	-111.604
		1135.25	-102.16	1135.25	-119.218
		1135.25	-119.218	1135.25	-119.218
				1135.25	-119.218
		1136.72	-100.093	1136.72	-113.47
		1136.72	-113.47	1136.72	-113.47
				1136.72	-113.47
		1138.18	-96.2803	1138.18	-125.233
		1138.18	-125.233	1138.18	-125.233
				1138.18	-125.233
		1139.65	-97.6172	1139.65	-125.994
		1139.65	-125.994	1139.65	-125.994
				1139.65	-125.994
		1141.11	-92.7243	1141.11	-114.055
		1141.11	-114.055	1141.11	-114.055
				1141.11	-114.055
		1142.58	-96.1909	1142.58	-112.704
		1142.58	-112.704	1142.58	-112.704
				1142.58	-112.704
		1144.04	-96.3913	1144.04	-113.244
		1144.04	-113.244	1144.04	-113.244
				1144.04	-113.244
		1145.51	-96.0614	1145.51	-127.912
		1145.51	-127.912	1145.51	-127.912
				1145.51	-127.912
1146.97	-41.3617			1146.97	-112.776
1146.97	-112.776			1146.97	-112.776
				1146.97	-112.776
				1148.44	-110.049
				1148.44	-110.049
				1148.44	-110.049
		1149.9	-105.731	1149.9	-112.754
		1149.9	-112.754	1149.9	-112.754
				1149.9	-112.754
				1151.37	-113.261
				1151.37	-113.261
				1151.37	-113.261
		1152.83	-100.323	1152.83	-108.061
		1152.83	-108.061	1152.83	-108.061
				1152.83	-108.061
		1154.3	-94.1239	1154.3	-111.408
		1154.3	-111.408	1154.3	-111.408
				1154.3	-111.408
		1155.76	-92.8878	1155.76	-111.928
		1155.76	-111.928	1155.76	-111.928
				1155.76	-111.928
		1157.23	-99.0556	1157.23	-111.778
		1157.23	-111.778	1157.23	-111.778
				1157.23	-111.778
		1158.69	-106.584	1158.69	-111.993
		1158.69	-111.993	1158.69	-111.993
				1158.69	-111.993
		1160.16	-94.3103	1160.16	-117.41
		1160.16	-117.41	1160.16	-117.41
				1160.16	-117.41
		1161.62	-89.6569	1161.62	-108.623
		1161.62	-108.623	1161.62	-108.623
				1161.62	-108.623
		1163.09	-98.5186	1163.09	-111.743
		1163.09	-111.743	1163.09	-111.743
				1163.09	-111.743
		1164.55	-95.5857	1164.55	-117.726
		1164.55	-117.726	1164.55	-117.726
				1164.55	-117.726
		1166.02	-101.426	1166.02	-114.345
		1166.02	-114.345	1166.02	-114.345
				1166.02	-114.345
		1167.48	-93.3075	1167.48	-112.206
		1167.48	-112.206	1167.48	-112.206
				1167.48	-112.206
		1168.95	-97.1242	1168.95	-111.222
		1168.95	-111.222	1168.95	-111.222
				1168.95	-111.222
		1170.41	-93.0568	1170.41	-106.632
		1170.41	-106.632	1170.41	-106.632
				1170.41	-106.632
		1171.88	-96.5867	1171.88	-108.87
		1171.88	-108.87	1171.88	-108.87
				1171.88	-108.87
		1173.34	-95.1782	1173.34	-120.696
		1173.34	-120.696	1173.34	-120.696
				1173.34	-120.696
		1174.8	-98.1565	1174.8	-111.321
		1174.8	-111.321	1174.8	-111.321
				1174.8	-111.321
		1176.27	-95.4521	1176.27	-119.984
		1176.27	-119.984	1176.27	-119.984
				1176.27	-119.984
		1177.73	-103.028	1177.73	-110.868
		1177.73	-110.868	1177.73	-110.868
				1177.73	-110.868
		1179.2	-105.269	1179.2	-117.854
		1179.2	-117.854	1179.2	-117.854
				1179.2	-117.854
1180.66	-41.3115			1180.66	-112.422
1180.66	-112.422			1180.66	-112.422
				1180.66	-112.422
		1182.13	-92.8756	1182.13	-119.079
		1182.13	-119.079	1182.13	-119.079
				1182.13	-119.079
		1183.59	-93.16	1183.59	-125.597
		1183.59	-125.597	1183.59	-125.597
				1183.59	-125.597
		1185.06	-97.0683	1185.06	-108.364
		1185.06	-108.364	1185.06	-108.364
				1185.06	-108.364
		1186.52	-110.295	1186.52	-114.197
		1186.52	-114.197	1186.52	-114.197
				1186.52	-114.197
		1187.99	-101.658	1187.99	-122.164
		1187.99	-122.164	1187.99	-122.164
				1187.99	-122.164
		1189.45	-99.024	1189.45	-108.474
		1189.45	-108.474	1189.45	-108.474
				1189.45	-108.474
		1190.92	-96.8619	1190.92	-108.244
		1190.92	-108.244	1190.92	-108.244
				1190.92	-108.244
		1192.38	-102.052	1192.38	-126.729
		1192.38	-126.729	1192.38	-126.729
				1192.38	-126.729
		1193.85	-95.096	1193.85	-119.126
		1193.85	-119.126	1193.85	-119.126
				1193.85	-119.126
		1195.31	-97.6462	1195.31	-126.005
		1195.31	-126.005	1195.31	-126.005
				1195.31	-126.005
		1196.78	-96.6198	1196.78	-114.669
		1196.78	-114.669	1196.78	-114.669
				1196.78	-114.669
		1198.24	-102.915	1198.24	-119.2
		1198.24	-119.2	1198.24	-119.2
				1198.24	-119.2
		1199.71	-108.472	1199.71	-109.748
		1199.71	-109.748	1199.71	-109.748
				1199.71	-109.748
		1201.17	-96.1556	1201.17	-111.27
		1201.17	-111.27	1201.17	-111.27
				1201.17	-111.27
		1202.64	-102.727	1202.64	-112.309
		1202.64	-112.309	1202.64	-112.309
				1202.64	-112.309
		1204.1	-102.857	1204.1	-117.859
		1204.1	-117.859	1204.1	-117.859
				1204.1	-117.859
		1205.57	-91.5836	1205.57	-108.79
		1205.57	-108.79	1205.57	-108.79
				1205.57	-108.79
		1207.03	-89.7681	1207.03	-115.364
		1207.03	-115.364	1207.03	-115.364
				1207.03	-115.364
		1208.5	-93.6989	1208.5	-117.182
		1208.5	-117.182	1208.5	-117.182
				1208.5	-117.182
		1209.96	-92.9538	1209.96	-109.117
		1209.96	-109.117	1209.96	-109.117
				1209.96	-109.117
		1211.43	-99.0172	1211.43	-116.317
		1211.43	-116.317	1211.43	-116.317
				1211.43	-116.317
		1212.89	-92.8856	1212.89	-106.203
		1212.89	-106.203	1212.89	-106.203
				1212.89	-106.203
		1214.36	-92.4685	1214.36	-116.629
		1214.36	-116.629	1214.36	-116.629
				1214.36	-116.629
1215.82	-41.2937			1215.82	-113.028
1215.82	-113.028			1215.82	-113.028
				1215.82	-113.028
		1217.29	-93.1098	1217.29	-119.729
		1217.29	-119.729	1217.29	-119.729
				1217.29	-119.729
		1218.75	-96.4813	1218.75	-114.602
		1218.75	-114.602	1218.75	-114.602
				1218.75	-114.602
		1220.21	-100.556	1220.21	-112.14
		1220.21	-112.14	1220.21	-112.14
				1220.21	-112.14
		1221.68	-90.5775	1221.68	-121.488
		1221.68	-121.488	1221.68	-121.488
				1221.68	-121.488
		1223.14	-98.2901	1223.14	-116.624
		1223.14	-116.624	1223.14	-116.624
				1223.14	-116.624
		1224.61	-105.907	1224.61	-109.561
		1224.61	-109.561	1224.61	-109.561
				1224.61	-109.561
		1226.07	-100.058	1226.07	-124.787
		1226.07	-124.787	1226.07	-124.787
				1226.07	-124.787
		1227.54	-98.1228	1227.54	-114.111
		1227.54	-114.111	1227.54	-114.111
				1227.54	-114.111
		1229	-93.6085	1229	-112.053
		1229	-112.053	1229	-112.053
				1229	-112.053
		1230.47	-98.4963	1230.47	-106.919
		1230.47	-106.919	1230.47	-106.919
				1230.47	-106.919
		1231.93	-94.8058	1231.93	-109.617
		1231.93	-109.617	1231.93	-109.617
				1231.93	-109.617
		1233.4	-96.0359	1233.4	-109.772
		1233.4	-109.772	1233.4	-109.772
				1233.4	-109.772
		1234.86	-95.01	1234.86	-108.286
		1234.86	-108.286	1234.86	-108.286
				1234.86	-108.286
		1236.33	-107.91	1236.33	-112.766
		1236.33	-112.766	1236.33	-112.766
				1236.33	-112.766
		1237.79	-98.0059	1237.79	-113.602
		1237.79	-113.602	1237.79	-113.602
				1237.79	-113.602
		1239.26	-91.6434	1239.26	-120.864
		1239.26	-120.864	1239.26	-120.864
				1239.26	-120.864
		1240.72	-93.8536	1240.72	-109.182
		1240.72	-109.182	1240.72	-109.182
				1240.72	-109.182
		1242.19	-100.815	1242.19	-109.101
		1242.19	-109.101	1242.19	-109.101
				1242.19	-109.101
		1243.65	-94.4872	1243.65	-109.273
		1243.65	-109.273	1243.65	-109.273
				1243.65	-109.273
		1245.12	-102.018	1245.12	-114.641
		1245.12	-114.641	1245.12	-114.641
				1245.12	-114.641
		1246.58	-94.5872	1246.58	-112.291
		1246.58	-112.291	1246.58	-112.291
				1246.58	-112.291
		1248.05	-97.8966	1248.05	-116.736
		1248.05	-116.736	1248.05	-116.736
				1248.05	-116.736
		1249.51	-96.5767	1249.51	-121.817
		1249.51	-121.817	1249.51	-121.817
				1249.51	-121.817
1250.98	-41.3137			1250.98	-106.705
1250.98	-106.705			1250.98	-106.705
				1250.98	-106.705
				1252.44	-110.077
				1252.44	-110.077
				1252.44	-110.077
		1253.91	-96.9987	1253.91	-108.502
		1253.91	-108.502	1253.91	-108.502
				1253.91	-108.502
		1255.37	-102.809	1255.37	-109.514
		1255.37	-109.514	1255.37	-109.514
				1255.37	-109.514
		1256.84	-98.4675	1256.84	-114.412
		1256.84	-114.412	1256.84	-114.412
				1256.84	-114.412
		1258.3	-98.9189	1258.3	-114.332
		1258.3	-114.332	1258.3	-114.332
				1258.3	-114.332
		1259.77	-109.277	1259.77	-134.523
		1259.77	-134.523	1259.77	-134.523
				1259.77	-134.523
		1261.23	-92.4408	1261.23	-114.328
		1261.23	-114.328	1261.23	-114.328
				1261.23	-114.328
		1262.7	-99.319	1262.7	-112.141
		1262.7	-112.141	1262.7	-112.141
				1262.7	-112.141
		1264.16	-90.6408	1264.16	-126.12
		1264.16	-126.12	1264.16	-126.12
				1264.16	-126.12
		1265.63	-97.8911	1265.63	-111.622
		1265.63	-111.622	1265.63	-111.622
				1265.63	-111.622
		1267.09	-98.3804	1267.09	-113.915
		1267.09	-113.915	1267.09	-113.915
				1267.09	-113.915
		1268.55	-93.8048	1268.55	-118.501
		1268.55	-118.501	1268.55	-118.501
				1268.55	-118.501
		1270.02	-99.6409	1270.02	-111.756
		1270.02	-111.756	1270.02	-111.756
				1270.02	-111.756
		1271.48	-101.52	1271.48	-108.293
		1271.48	-108.293	1271.48	-108.293
				1271.48	-108.293
		1272.95	-94.8377	1272.95	-107.94
		1272.95	-107.94	1272.95	-107.94
				1272.95	-107.94
		1274.41	-97.2137	1274.41	-116.906
		1274.41	-116.906	1274.41	-116.906
				1274.41	-116.906
		1275.88	-114.863	1275.88	-117.412
		1275.88	-117.412	1275.88	-117.412
				1275.88	-117.412
		1277.34	-91.3725	1277.34	-122.295
		1277.34	-122.295	1277.34	-122.295
				1277.34	-122.295
		1278.81	-98.2644	1278.81	-113.82
		1278.81	-113.82	1278.81	-113.82
				1278.81	-113.82
		1280.27	-96.5174	1280.27	-124.347
		1280.27	-124.347	1280.27	-124.347
				1280.27	-124.347
				1281.74	-106.402
				1281.74	-106.402
				1281.74	-106.402
		1283.2	-97.2262	1283.2	-113.181
		1283.2	-113.181	1283.2	-113.181
				1283.2	-113.181
		1284.67	-95.9679	1284.67	-111.573
		1284.67	-111.573	1284.67	-111.573
				1284.67	-111.573
		1286.13	-109.168	1286.13	-116.217
		1286.13	-116.217	1286.13	-116.217
				1286.13	-116.217
1287.6	-41.3538			1287.6	-116.865
1287.6	-116.865			1287.6	-116.865
				1287.6	-116.865
		1289.06	-108.369	1289.06	-111.719
		1289.06	-111.719	1289.06	-111.719
				1289.06	-111.719
		1290.53	-100.012	1290.53	-117.655
		1290.53	-117.655	1290.53	-117.655
				1290.53	-117.655
		1291.99	-96.3918	1291.99	-110.664
		1291.99	-110.664	1291.99	-110.664
				1291.99	-110.664
		1293.46	-101.056	1293.46	-109.594
		1293.46	-109.594	1293.46	-109.594
				1293.46	-109.594
		1294.92	-95.3721	1294.92	-108.845
		1294.92	-108.845	1294.92	-108.845
				1294.92	-108.845
		1296.39	-105.025	1296.39	-111.108
		1296.39	-111.108	1296.39	-111.108
				1296.39	-111.108
		1297.85	-92.2091	1297.85	-114.46
		1297.85	-114.46	1297.85	-114.46
				1297.85	-114.46
		1299.32	-100.402	1299.32	-120.147
		1299.32	-120.147	1299.32	-120.147
				1299.32	-120.147
		1300.78	-99.8805	1300.78	-116.476
		1300.78	-116.476	1300.78	-116.476
				1300.78	-116.476
		1302.25	-102.34	1302.25	-113.692
		1302.25	-113.692	1302.25	-113.692
				1302.25	-113.692
		1303.71	-99.6853	1303.71	-108.209
		1303.71	-108.209	1303.71	-108.209
				1303.71	-108.209
		1305.18	-101.243	1305.18	-110.981
		1305.18	-110.981	1305.18	-110.981
				1305.18	-110.981
		1306.64	-105.948	1306.64	-114.375
		1306.64	-114.375	1306.64	-114.375
				1306.64	-114.375
		1308.11	-92.2375	1308.11	-113.587
		1308.11	-113.587	1308.11	-113.587
				1308.11	-113.587
		1309.57	-107.325	1309.57	-115.163
		1309.57	-115.163	1309.57	-115.163
				1309.57	-115.163
		1311.04	-92.4161	1311.04	-109.814
		1311.04	-109.814	1311.04	-109.814
				1311.04	-109.814
		1312.5	-92.4581	1312.5	-117.099
		1312.5	-117.099	1312.5	-117.099
				1312.5	-117.099
		1313.96	-92.4223	1313.96	-116.47
		1313.96	-116.47	1313.96	-116.47
				1313.96	-116.47
		1315.43	-91.5218	1315.43	-115.411
		1315.43	-115.411	1315.43	-115.411
				1315.43	-115.411
		1316.89	-100.02	1316.89	-112.585
		1316.89	-112.585	1316.89	-112.585
				1316.89	-112.585
		1318.36	-114.632	1318.36	-116.069
		1318.36	-116.069	1318.36	-116.069
				1318.36	-116.069
		1319.82	-104.064	1319.82	-112.035
		1319.82	-112.035	1319.82	-112.035
				1319.82	-112.035
		1321.29	-98.5948	1321.29	-126.278
		1321.29	-126.278	1321.29	-126.278
				1321.29	-126.278
		1322.75	-112.125	1322.75	-120.432
		1322.75	-120.432	1322.75	-120.432
				1322.75	-120.432
				1324.22	-105.514
				1324.22	-105.514
				1324.22	-105.514
1325.68	-41.4105			1325.68	-119.955
1325.68	-119.955			1325.68	-119.955
				1325.68	-119.955
		1327.15	-99.577	1327.15	-110.54
		1327.15	-110.54	1327.15	-110.54
				1327.15	-110.54
		1328.61	-98.6574	1328.61	-111.912
		1328.61	-111.912	1328.61	-111.912
				1328.61	-111.912
		1330.08	-101.158	1330.08	-116.154
		1330.08	-116.154	1330.08	-116.154
				1330.08	-116.154
		1331.54	-99.7344	1331.54	-113.726
		1331.54	-113.726	1331.54	-113.726
				1331.54	-113.726
		1333.01	-99.718	1333.01	-108.684
		1333.01	-108.684	1333.01	-108.684
				1333.01	-108.684
		1334.47	-100.2	1334.47	-116.864
		1334.47	-116.864	1334.47	-116.864
				1334.47	-116.864
		1335.94	-99.5731	1335.94	-115.612
		1335.94	-115.612	1335.94	-115.612
				1335.94	-115.612
		1337.4	-98.6157	1337.4	-111.237
		1337.4	-111.237	1337.4	-111.237
				1337.4	-111.237
		1338.87	-92.9947	1338.87	-114.059
		1338.87	-114.059	1338.87	-114.059
				1338.87	-114.059
		1340.33	-88.3162	1340.33	-124.135
		1340.33	-124.135	1340.33	-124.135
				1340.33	-124.135
		1341.8	-98.0742	1341.8	-143.836
		1341.8	-143.836	1341.8	-143.836
				1341.8	-143.836
		1343.26	-91.0614	1343.26	-113.956
		1343.26	-113.956	1343.26	-113.956
				1343.26	-113.956
		1344.73	-103.977	1344.73	-129.018
		1344.73	-129.018	1344.73	-129.018
				1344.73	-129.018
				1346.19	-109.253
				1346.19	-109.253
				1346.19	-109.253
		1347.66	-98.3308	1347.66	-111.216
		1347.66	-111.216	1347.66	-111.216
				1347.66	-111.216
		1349.12	-103.235	1349.12	-107.859
		1349.12	-107.859	1349.12	-107.859
				1349.12	-107.859
		1350.59	-94.8036	1350.59	-113.468
		1350.59	-113.468	1350.59	-113.468
				1350.59	-113.468
		1352.05	-94.2718	1352.05	-117.075
		1352.05	-117.075	1352.05	-117.075
				1352.05	-117.075
		1353.52	-94.5954	1353.52	-108.114
		1353.52	-108.114	1353.52	-108.114
				1353.52	-108.114
		1354.98	-95.0041	1354.98	-111.183
		1354.98	-111.183	1354.98	-111.183
				1354.98	-111.183
		1356.45	-99.035	1356.45	-111.447
		1356.45	-111.447	1356.45	-111.447
				1356.45	-111.447
		1357.91	-98.2053	1357.91	-118.385
		1357.91	-118.385	1357.91	-118.385
				1357.91	-118.385
		1359.38	-99.2947	1359.38	-113.215
		1359.38	-113.215	1359.38	-113.215
				1359.38	-113.215
		1360.84	-94.5556	1360.84	-106.592
		1360.84	-106.592	1360.84	-106.592
				1360.84	-106.592
		1362.3	-102.186	1362.3	-107.27
		1362.3	-107.27	1362.3	-107.27
				1362.3	-107.27
		1363.77	-95.9304	1363.77	-117.047
		1363.77	-117.047	1363.77	-117.047
				1363.77	-117.047
1365.23	-41.4956			1365.23	-113.073
1365.23	-113.073			1365.23	-113.073
				1365.23	-113.073
		1366.7	-94.9363	1366.7	-107.881
		1366.7	-107.881	1366.7	-107.881
				1366.7	-107.881
		1368.16	-96.4468	1368.16	-108.204
		1368.16	-108.204	1368.16	-108.204
				1368.16	-108.204
		1369.63	-93.347	1369.63	-108.148
		1369.63	-108.148	1369.63	-108.148
				1369.63	-108.148
		1371.09	-96.3858	1371.09	-118.549
		1371.09	-118.549	1371.09	-118.549
				1371.09	-118.549
		1372.56	-94.6589	1372.56	-108.639
		1372.56	-108.639	1372.56	-108.639
				1372.56	-108.639
		1374.02	-95.437	1374.02	-116.873
		1374.02	-116.873	1374.02	-116.873
				1374.02	-116.873
		1375.49	-107.2	1375.49	-114.957
		1375.49	-114.957	1375.49	-114.957
				1375.49	-114.957
		1376.95	-104.323	1376.95	-115.227
		1376.95	-115.227	1376.95	-115.227
				1376.95	-115.227
		1378.42	-98.8145	1378.42	-125.139
		1378.42	-125.139	1378.42	-125.139
				1378.42	-125.139
		1379.88	-94.5592	1379.88	-112.507
		1379.88	-112.507	1379.88	-112.507
				1379.88	-112.507
		1381.35	-95.1966	1381.35	-115.573
		1381.35	-115.573	1381.35	-115.573
				1381.35	-115.573
		1382.81	-93.9887	1382.81	-114.38
		1382.81	-114.38	1382.81	-114.38
				1382.81	-114.38
				1384.28	-110.758
				1384.28	-110.758
				1384.28	-110.758
		1385.74	-97.9179	1385.74	-111.47
		1385.74	-111.47	1385.74	-111.47
				1385.74	-111.47
		1387.21	-96.9843	1387.21	-115.182
		1387.21	-115.182	1387.21	-115.182
				1387.21	-115.182
		1388.67	-94.7674	1388.67	-111.932
		1388.67	-111.932	1388.67	-111.932
				1388.67	-111.932
		1390.14	-109.684	1390.14	-112.236
		1390.14	-112.236	1390.14	-112.236
				1390.14	-112.236
		1391.6	-98.2468	1391.6	-120.645
		1391.6	-120.645	1391.6	-120.645
				1391.6	-120.645
		1393.07	-103.796	1393.07	-110.558
		1393.07	-110.558	1393.07	-110.558
				1393.07	-110.558
		1394.53	-98.8813	1394.53	-109.995
		1394.53	-109.995	1394.53	-109.995
				1394.53	-109.995
		1396	-100.772	1396	-127.662
		1396	-127.662	1396	-127.662
				1396	-127.662
		1397.46	-94.0299	1397.46	-113.173
		1397.46	-113.173	1397.46	-113.173
				1397.46	-113.173
		1398.93	-103.077	1398.93	-110.529
		1398.93	-110.529	1398.93	-110.529
				1398.93	-110.529
		1400.39	-91.8855	1400.39	-119.078
		1400.39	-119.078	1400.39	-119.078
				1400.39	-119.078
		1401.86	-92.266	1401.86	-109.128
		1401.86	-109.128	1401.86	-109.128
				1401.86	-109.128
		1403.32	-101.006	1403.32	-110.366
		1403.32	-110.366	1403.32	-110.366
				1403.32	-110.366
1404.79	-41.5742			1404.79	-113.287
1404.79	-113.287			1404.79	-113.287
				1404.79	-113.287
		1406.25	-101.884	1406.25	-115.878
		1406.25	-115.878	1406.25	-115.878
				1406.25	-115.878
		1407.71	-92.3723	1407.71	-111.522
		1407.71	-111.522	1407.71	-111.522
				1407.71	-111.522
		1409.18	-90.9543	1409.18	-110.819
		1409.18	-110.819	1409.18	-110.819
				1409.18	-110.819
		1410.64	-99.1244	1410.64	-120.297
		1410.64	-120.297	1410.64	-120.297
				1410.64	-120.297
		1412.11	-101.084	1412.11	-109.371
		1412.11	-109.371	1412.11	-109.371
				1412.11	-109.371
		1413.57	-103.169	1413.57	-113.565
		1413.57	-113.565	1413.57	-113.565
				1413.57	-113.565
		1415.04	-90.8663	1415.04	-111.485
		1415.04	-111.485	1415.04	-111.485
				1415.04	-111.485
		1416.5	-100.562	1416.5	-117.899
		1416.5	-117.899	1416.5	-117.899
				1416.5	-117.899
		1417.97	-103.685	1417.97	-120.988
		1417.97	-120.988	1417.97	-120.988
				1417.97	-120.988
		1419.43	-106.333	1419.43	-114.31
		1419.43	-114.31	1419.43	-114.31
				1419.43	-114.31
		1420.9	-108.101	1420.9	-110.488
		1420.9	-110.488	1420.9	-110.488
				1420.9	-110.488
				1422.36	-110.266
				1422.36	-110.266
				1422.36	-110.266
		1423.83	-100.827	1423.83	-112.066
		1423.83	-112.066	1423.83	-112.066
				1423.83	-112.066
		1425.29	-95.6249	1425.29	-112.642
		1425.29	-112.642	1425.29	-112.642
				1425.29	-112.642
		1426.76	-97.0935	1426.76	-112.486
		1426.76	-112.486	1426.76	-112.486
				1426.76	-112.486
		1428.22	-100.769	1428.22	-113.556
		1428.22	-113.556	1428.22	-113.556
				1428.22	-113.556
		1429.69	-93.3113	1429.69	-128.707
		1429.69	-128.707	1429.69	-128.707
				1429.69	-128.707
		1431.15	-93.4531	1431.15	-114.798
		1431.15	-114.798	1431.15	-114.798
				1431.15	-114.798
		1432.62	-93.6391	1432.62	-120.614
		1432.62	-120.614	1432.62	-120.614
				1432.62	-120.614
		1434.08	-104.272	1434.08	-132.162
		1434.08	-132.162	1434.08	-132.162
				1434.08	-132.162
		1435.55	-99.1917	1435.55	-118.624
		1435.55	-118.624	1435.55	-118.624
				1435.55	-118.624
		1437.01	-92.1411	1437.01	-114.326
		1437.01	-114.326	1437.01	-114.326
				1437.01	-114.326
		1438.48	-97.3007	1438.48	-117.831
		1438.48	-117.831	1438.48	-117.831
				1438.48	-117.831
		1439.94	-102.454	1439.94	-114.161
		1439.94	-114.161	1439.94	-114.161
				1439.94	-114.161
		1441.41	-95.4697	1441.41	-116.024
		1441.41	-116.024	1441.41	-116.024
				1441.41	-116.024
		1442.87	-99.4667	1442.87	-113.645
		1442.87	-113.645	1442.87	-113.645
				1442.87	-113.645
		1444.34	-100.046	1444.34	-118.071
		1444.34	-118.071	1444.34	-118.071
				1444.34	-118.071
1445.8	-41.6651			1445.8	-118.175
1445.8	-118.175			1445.8	-118.175
				1445.8	-118.175
				1447.27	-110.159
				1447.27	-110.159
				1447.27	-110.159
		1448.73	-95.2145	1448.73	-114.812
		1448.73	-114.812	1448.73	-114.812
				1448.73	-114.812
		1450.2	-108.354	1450.2	-115.236
		1450.2	-115.236	1450.2	-115.236
				1450.2	-115.236
		1451.66	-103.467	1451.66	-113.709
		1451.66	-113.709	1451.66	-113.709
				1451.66	-113.709
		1453.13	-95.8165	1453.13	-116.977
		1453.13	-116.977	1453.13	-116.977
				1453.13	-116.977
		1454.59	-98.4098	1454.59	-122.45
		1454.59	-122.45	1454.59	-122.45
				1454.59	-122.45
		1456.05	-94.5421	1456.05	-114.815
		1456.05	-114.815	1456.05	-114.815
				1456.05	-114.815
		1457.52	-93.6176	1457.52	-123.689
		1457.52	-123.689	1457.52	-123.689
				1457.52	-123.689
		1458.98	-97.5816	1458.98	-112.262
		1458.98	-112.262	1458.98	-112.262
				1458.98	-112.262
		1460.45	-89.6162	1460.45	-118.031
		1460.45	-118.031	1460.45	-118.031
				1460.45	-118.031
		1461.91	-101.256	1461.91	-113.27
		1461.91	-113.27	1461.91	-113.27
				1461.91	-113.27
		1463.38	-101.595	1463.38	-122.309
		1463.38	-122.309	1463.38	-122.309
				1463.38	-122.309
		1464.84	-92.6881	1464.84	-106.856
		1464.84	-106.856	1464.84	-106.856
				1464.84	-106.856
		1466.31	-92.5722	1466.31	-113.79
		1466.31	-113.79	1466.31	-113.79
				1466.31	-113.79
		1467.77	-95.689	1467.77	-121.12
		1467.77	-121.12	1467.77	-121.12
				1467.77	-121.12
		1469.24	-94.3075	1469.24	-116.285
		1469.24	-116.285	1469.24	-116.285
				1469.24	-116.285
		1470.7	-110.592	1470.7	-114.121
		1470.7	-114.121	1470.7	-114.121
				1470.7	-114.121
		1472.17	-102.112	1472.17	-112.261
		1472.17	-112.261	1472.17	-112.261
				1472.17	-112.261
		1473.63	-101.399	1473.63	-112.572
		1473.63	-112.572	1473.63	-112.572
				1473.63	-112.572
		1475.1	-91.5151	1475.1	-114.095
		1475.1	-114.095	1475.1	-114.095
				1475.1	-114.095
		1476.56	-100.557	1476.56	-115.5
		1476.56	-115.5	1476.56	-115.5
				1476.56	-115.5
		1478.03	-105.233	1478.03	-107.064
		1478.03	-107.064	1478.03	-107.064
				1478.03	-107.064
		1479.49	-101.992	1479.49	-109.631
		1479.49	-109.631	1479.49	-109.631
				1479.49	-109.631
		1480.96	-96.357	1480.96	-115.823
		1480.96	-115.823	1480.96	-115.823
				1480.96	-115.823
		1482.42	-104.371	1482.42	-111.585
		1482.42	-111.585	1482.42	-111.585
				1482.42	-111.585
		1483.89	-95.8988	1483.89	-113.368
		1483.89	-113.368	1483.89	-113.368
				1483.89	-113.368
		1485.35	-97.7632	1485.35	-111.834
		1485.35	-111.834	1485.35	-111.834
				1485.35	-111.834
		1486.82	-97.4968	1486.82	-109.203
		1486.82	-109.203	1486.82	-109.203
				1486.82	-109.203
1488.28	-41.7767			1488.28	-111.709
1488.28	-111.709			1488.28	-111.709
				1488.28	-111.709
		1489.75	-93.8083	1489.75	-109.372
		1489.75	-109.372	1489.75	-109.372
				1489.75	-109.372
		1491.21	-101.863	1491.21	-107.201
		1491.21	-107.201	1491.21	-107.201
				1491.21	-107.201
		1492.68	-98.1181	1492.68	-115.312
		1492.68	-115.312	1492.68	-115.312
				1492.68	-115.312
		1494.14	-100.415	1494.14	-116.352
		1494.14	-116.352	1494.14	-116.352
				1494.14	-116.352
		1495.61	-95.5871	1495.61	-108.235
		1495.61	-108.235	1495.61	-108.235
				1495.61	-108.235
		1497.07	-98.2474	1497.07	-115.012
		1497.07	-115.012	1497.07	-115.012
				1497.07	-115.012
		1498.54	-105.15	1498.54	-108.712
		1498.54	-108.712	1498.54	-108.712
				1498.54	-108.712
		1500	-95.1241	1500	-123.532
		1500	-123.532	1500	-123.532
				1500	-123.532
		1501.46	-91.6702	1501.46	-111.962
		1501.46	-111.962	1501.46	-111.962
				1501.46	-111.962
				1502.93	-104.235
				1502.93	-104.235
				1502.93	-104.235
		1504.39	-98.0227	1504.39	-129.69
		1504.39	-129.69	1504.39	-129.69
				1504.39	-129.69
		1505.86	-95.5195	1505.86	-117.403
		1505.86	-117.403	1505.86	-117.403
				1505.86	-117.403
		1507.32	-102.661	1507.32	-108.68
		1507.32	-108.68	1507.32	-108.68
				1507.32	-108.68
		1508.79	-97.284	1508.79	-135.681
		1508.79	-135.681	1508.79	-135.681
				1508.79	-135.681
		1510.25	-92.3829	1510.25	-125.71
		1510.25	-125.71	1510.25	-125.71
				1510.25	-125.71
		1511.72	-103.224	1511.72	-115.584
		1511.72	-115.584	1511.72	-115.584
				1511.72	-115.584
		1513.18	-95.3003	1513.18	-111.573
		1513.18	-111.573	1513.18	-111.573
				1513.18	-111.573
		1514.65	-105.883	1514.65	-108.13
		1514.65	-108.13	1514.65	-108.13
				1514.65	-108.13
		1516.11	-103.273	1516.11	-111.518
		1516.11	-111.518	1516.11	-111.518
				1516.11	-111.518
		1517.58	-100.756	1517.58	-118.954
		1517.58	-118.954	1517.58	-118.954
				1517.58	-118.954
		1519.04	-98.2176	1519.04	-111.42
		1519.04	-111.42	1519.04	-111.42
				1519.04	-111.42
		1520.51	-90.6143	1520.51	-113.323
		1520.51	-113.323	1520.51	-113.323
				1520.51	-113.323
		1521.97	-93.9746	1521.97	-113.211
		1521.97	-113.211	1521.97	-113.211
				1521.97	-113.211
		1523.44	-98.8122	1523.44	-110.812
		1523.44	-110.812	1523.44	-110.812
				1523.44	-110.812
		1524.9	-96.0755	1524.9	-110.552
		1524.9	-110.552	1524.9	-110.552
				1524.9	-110.552
		1526.37	-96.7801	1526.37	-117.89
		1526.37	-117.89	1526.37	-117.89
				1526.37	-117.89
		1527.83	-99.8153	1527.83	-110.488
		1527.83	-110.488	1527.83	-110.488
				1527.83	-110.488
		1529.3	-101.768	1529.3	-114.798
		1529.3	-114.798	1529.3	-114.798
				1529.3	-114.798
		1530.76	-103.219	1530.76	-119.276
		1530.76	-119.276	1530.76	-119.276
				1530.76	-119.276
1532.23	-41.8574			1532.23	-114.503
1532.23	-114.503			1532.23	-114.503
				1532.23	-114.503
		1533.69	-111.575	1533.69	-117.081
		1533.69	-117.081	1533.69	-117.081
				1533.69	-117.081
		1535.16	-91.4771	1535.16	-111.981
		1535.16	-111.981	1535.16	-111.981
				1535.16	-111.981
		1536.62	-97.1313	1536.62	-110.589
		1536.62	-110.589	1536.62	-110.589
				1536.62	-110.589
		1538.09	-113.99	1538.09	-115.302
		1538.09	-115.302	1538.09	-115.302
				1538.09	-115.302
		1539.55	-106.964	1539.55	-108.688
		1539.55	-108.688	1539.55	-108.688
				1539.55	-108.688
		1541.02	-98.1562	1541.02	-118.862
		1541.02	-118.862	1541.02	-118.862
				1541.02	-118.862
		1542.48	-99.2818	1542.48	-129.711
		1542.48	-129.711	1542.48	-129.711
				1542.48	-129.711
		1543.95	-97.748	1543.95	-115.882
		1543.95	-115.882	1543.95	-115.882
				1543.95	-115.882
		1545.41	-105.718	1545.41	-127.783
		1545.41	-127.783	1545.41	-127.783
				1545.41	-127.783
		1546.88	-107.678	1546.88	-119.46
		1546.88	-119.46	1546.88	-119.46
				1546.88	-119.46
				1548.34	-110.358
				1548.34	-110.358
				1548.34	-110.358
		1549.8	-100.692	1549.8	-108.757
		1549.8	-108.757	1549.8	-108.757
				1549.8	-108.757
		1551.27	-95.8526	1551.27	-115.404
		1551.27	-115.404	1551.27	-115.404
				1551.27	-115.404
		1552.73	-95.7836	1552.73	-117.251
		1552.73	-117.251	1552.73	-117.251
				1552.73	-117.251
		1554.2	-93.8949	1554.2	-105.256
		1554.2	-105.256	1554.2	-105.256
				1554.2	-105.256
		1555.66	-96.9825	1555.66	-106.036
		1555.66	-106.036	1555.66	-106.036
				1555.66	-106.036
		1557.13	-96.268	1557.13	-112.004
		1557.13	-112.004	1557.13	-112.004
				1557.13	-112.004
		1558.59	-94.5476	1558.59	-116.689
		1558.59	-116.689	1558.59	-116.689
				1558.59	-116.689
		1560.06	-98.4904	1560.06	-107.115
		1560.06	-107.115	1560.06	-107.115
				1560.06	-107.115
		1561.52	-94.9827	1561.52	-116.202
		1561.52	-116.202	1561.52	-116.202
				1561.52	-116.202
		1562.99	-102.304	1562.99	-114.524
		1562.99	-114.524	1562.99	-114.524
				1562.99	-114.524
		1564.45	-104.616	1564.45	-109.04
		1564.45	-109.04	1564.45	-109.04
				1564.45	-109.04
		1565.92	-103.534	1565.92	-108.604
		1565.92	-108.604	1565.92	-108.604
				1565.92	-108.604
		1567.38	-102.294	1567.38	-108.412
		1567.38	-108.412	1567.38	-108.412
				1567.38	-108.412
		1568.85	-98.9425	1568.85	-117.551
		1568.85	-117.551	1568.85	-117.551
				1568.85	-117.551
		1570.31	-104.533	1570.31	-111.703
		1570.31	-111.703	1570.31	-111.703
				1570.31	-111.703
		1571.78	-99.2764	1571.78	-116.186
		1571.78	-116.186	1571.78	-116.186
				1571.78	-116.186
		1573.24	-96.0959	1573.24	-111.726
		1573.24	-111.726	1573.24	-111.726
				1573.24	-111.726
		1574.71	-91.7785	1574.71	-119.222
		1574.71	-119.222	1574.71	-119.222
				1574.71	-119.222
1576.17	-41.9483			1576.17	-118.378
1576.17	-118.378			1576.17	-118.378
				1576.17	-118.378
		1577.64	-99.9203	1577.64	-113.46
		1577.64	-113.46	1577.64	-113.46
				1577.64	-113.46
		1579.1	-99.3127	1579.1	-116.255
		1579.1	-116.255	1579.1	-116.255
				1579.1	-116.255
		1580.57	-96.3657	1580.57	-109.968
		1580.57	-109.968	1580.57	-109.968
				1580.57	-109.968
		1582.03	-106.019	1582.03	-108.705
		1582.03	-108.705	1582.03	-108.705
				1582.03	-108.705
		1583.5	-98.9777	1583.5	-115.624
		1583.5	-115.624	1583.5	-115.624
				1583.5	-115.624
		1584.96	-96.3805	1584.96	-115.522
		1584.96	-115.522	1584.96	-115.522
				1584.96	-115.522
		1586.43	-101.225	1586.43	-127.007
		1586.43	-127.007	1586.43	-127.007
				1586.43	-127.007
		1587.89	-98.151	1587.89	-123.658
		1587.89	-123.658	1587.89	-123.658
				1587.89	-123.658
		1589.36	-97.899	1589.36	-112.919
		1589.36	-112.919	1589.36	-112.919
				1589.36	-112.919
		1590.82	-95.8352	1590.82	-108.181
		1590.82	-108.181	1590.82	-108.181
				1590.82	-108.181
		1592.29	-93.1636	1592.29	-118.504
		1592.29	-118.504	1592.29	-118.504
				1592.29	-118.504
		1593.75	-95.1758	1593.75	-114.796
		1593.75	-114.796	1593.75	-114.796
				1593.75	-114.796
				1595.21	-109.112
				1595.21	-109.112
				1595.21	-109.112
		1596.68	-94.9267	1596.68	-127.766
		1596.68	-127.766	1596.68	-127.766
				1596.68	-127.766
		1598.14	-99.4821	1598.14	-109.557
		1598.14	-109.557	1598.14	-109.557
				1598.14	-109.557
		1599.61	-102.212	1599.61	-114.906
		1599.61	-114.906	1599.61	-114.906
				1599.61	-114.906
		1601.07	-104.403	1601.07	-112.331
		1601.07	-112.331	1601.07	-112.331
				1601.07	-112.331
		1602.54	-98.3473	1602.54	-117.317
		1602.54	-117.317	1602.54	-117.317
				1602.54	-117.317
		1604	-96.9397	1604	-113.263
		1604	-113.263	1604	-113.263
				1604	-113.263
		1605.47	-110.99	1605.47	-115.523
		1605.47	-115.523	1605.47	-115.523
				1605.47	-115.523
		1606.93	-98.6491	1606.93	-109.913
		1606.93	-109.913	1606.93	-109.913
				1606.93	-109.913
		1608.4	-97.9738	1608.4	-114.316
		1608.4	-114.316	1608.4	-114.316
				1608.4	-114.316
		1609.86	-95.3428	1609.86	-110.044
		1609.86	-110.044	1609.86	-110.044
				1609.86	-110.044
		1611.33	-103.734	1611.33	-109.35
		1611.33	-109.35	1611.33	-109.35
				1611.33	-109.35
		1612.79	-102.582	1612.79	-109.676
		1612.79	-109.676	1612.79	-109.676
				1612.79	-109.676
		1614.26	-110.371	1614.26	-111.974
		1614.26	-111.974	1614.26	-111.974
				1614.26	-111.974
		1615.72	-98.9633	1615.72	-113.144
		1615.72	-113.144	1615.72	-113.144
				1615.72	-113.144
		1617.19	-98.269	1617.19	-112.307
		1617.19	-112.307	1617.19	-112.307
				1617.19	-112.307
		1618.65	-98.9716	1618.65	-109.604
		1618.65	-109.604	1618.65	-109.604
				1618.65	-109.604
		1620.12	-94.5428	1620.12	-115.413
		1620.12	-115.413	1620.12	-115.413
				1620.12	-115.413
		1621.58	-98.2359	1621.58	-110.439
		1621.58	-110.439	1621.58	-110.439
				1621.58	-110.439
1623.05	-42.0811			1623.05	-115.885
1623.05	-115.885			1623.05	-115.885
				1623.05	-115.885
		1624.51	-99.384	1624.51	-114.856
		1624.51	-114.856	1624.51	-114.856
				1624.51	-114.856
		1625.98	-103.509	1625.98	-115.898
		1625.98	-115.898	1625.98	-115.898
				1625.98	-115.898
		1627.44	-95.8767	1627.44	-112.453
		1627.44	-112.453	1627.44	-112.453
				1627.44	-112.453
		1628.91	-90.0583	1628.91	-117.579
		1628.91	-117.579	1628.91	-117.579
				1628.91	-117.579
		1630.37	-98.9218	1630.37	-112.61
		1630.37	-112.61	1630.37	-112.61
				1630.37	-112.61
		1631.84	-103.046	1631.84	-112.815
		1631.84	-112.815	1631.84	-112.815
				1631.84	-112.815
		1633.3	-91.807	1633.3	-107.893
		1633.3	-107.893	1633.3	-107.893
				1633.3	-107.893
		1634.77	-98.4798	1634.77	-109.831
		1634.77	-109.831	1634.77	-109.831
				1634.77	-109.831
		1636.23	-95.0703	1636.23	-116.831
		1636.23	-116.831	1636.23	-116.831
				1636.23	-116.831
		1637.7	-105.023	1637.7	-119.139
		1637.7	-119.139	1637.7	-119.139
				1637.7	-119.139
		1639.16	-94.2655	1639.16	-122.522
		1639.16	-122.522	1639.16	-122.522
				1639.16	-122.522
		1640.63	-99.3166	1640.63	-118.038
		1640.63	-118.038	1640.63	-118.038
				1640.63	-118.038
		1642.09	-95.4381	1642.09	-114.341
		1642.09	-114.341	1642.09	-114.341
				1642.09	-114.341
		1643.55	-99.8708	1643.55	-115.988
		1643.55	-115.988	1643.55	-115.988
				1643.55	-115.988
		1645.02	-100.467	1645.02	-118.674
		1645.02	-118.674	1645.02	-118.674
				1645.02	-118.674
		1646.48	-100.481	1646.48	-108.907
		1646.48	-108.907	1646.48	-108.907
				1646.48	-108.907
		1647.95	-101.534	1647.95	-123.51
		1647.95	-123.51	1647.95	-123.51
				1647.95	-123.51
				1649.41	-107.712
				1649.41	-107.712
				1649.41	-107.712
		1650.88	-96.986	1650.88	-122.502
		1650.88	-122.502	1650.88	-122.502
				1650.88	-122.502
		1652.34	-101.903	1652.34	-111.424
		1652.34	-111.424	1652.34	-111.424
				1652.34	-111.424
		1653.81	-98.0582	1653.81	-114.161
		1653.81	-114.161	1653.81	-114.161
				1653.81	-114.161
		1655.27	-92.8449	1655.27	-111.558
		1655.27	-111.558	1655.27	-111.558
				1655.27	-111.558
		1656.74	-99.4263	1656.74	-111.667
		1656.74	-111.667	1656.74	-111.667
				1656.74	-111.667
		1658.2	-102.153	1658.2	-118.364
		1658.2	-118.364	1658.2	-118.364
				1658.2	-118.364
		1659.67	-92.0649	1659.67	-118.291
		1659.67	-118.291	1659.67	-118.291
				1659.67	-118.291
		1661.13	-98.9929	1661.13	-114.16
		1661.13	-114.16	1661.13	-114.16
				1661.13	-114.16
		1662.6	-98.4793	1662.6	-127.837
		1662.6	-127.837	1662.6	-127.837
				1662.6	-127.837
		1664.06	-108.144	1664.06	-117.855
		1664.06	-117.855	1664.06	-117.855
				1664.06	-117.855
		1665.53	-100.929	1665.53	-109.927
		1665.53	-109.927	1665.53	-109.927
				1665.53	-109.927
		1666.99	-110.074	1666.99	-111.863
		1666.99	-111.863	1666.99	-111.863
				1666.99	-111.863
		1668.46	-107.266	1668.46	-120.887
		1668.46	-120.887	1668.46	-120.887
				1668.46	-120.887
1669.92	-42.1833			1669.92	-110.244
1669.92	-110.244			1669.92	-110.244
				1669.92	-110.244
		1671.39	-90.2604	1671.39	-107.632
		1671.39	-107.632	1671.39	-107.632
				1671.39	-107.632
		1672.85	-97.257	1672.85	-115.268
		1672.85	-115.268	1672.85	-115.268
				1672.85	-115.268
		1674.32	-98.2375	1674.32	-106.947
		1674.32	-106.947	1674.32	-106.947
				1674.32	-106.947
		1675.78	-95.1022	1675.78	-102.579
		1675.78	-102.579	1675.78	-102.579
				1675.78	-102.579
		1677.25	-92.9623	1677.25	-111.012
		1677.25	-111.012	1677.25	-111.012
				1677.25	-111.012
		1678.71	-99.2748	1678.71	-111.155
		1678.71	-111.155	1678.71	-111.155
				1678.71	-111.155
		1680.18	-100.616	1680.18	-112.615
		1680.18	-112.615	1680.18	-112.615
				1680.18	-112.615
		1681.64	-105.061	1681.64	-123.56
		1681.64	-123.56	1681.64	-123.56
				1681.64	-123.56
		1683.11	-109.418	1683.11	-112.771
		1683.11	-112.771	1683.11	-112.771
				1683.11	-112.771
		1684.57	-107.551	1684.57	-111.498
		1684.57	-111.498	1684.57	-111.498
				1684.57	-111.498
		1686.04	-106.167	1686.04	-118.306
		1686.04	-118.306	1686.04	-118.306
				1686.04	-118.306
		1687.5	-106.718	1687.5	-108.338
		1687.5	-108.338	1687.5	-108.338
				1687.5	-108.338
		1688.96	-104.636	1688.96	-130.041
		1688.96	-130.041	1688.96	-130.041
				1688.96	-130.041
		1690.43	-98.3233	1690.43	-116.333
		1690.43	-116.333	1690.43	-116.333
				1690.43	-116.333
		1691.89	-102.471	1691.89	-109.111
		1691.89	-109.111	1691.89	-109.111
				1691.89	-109.111
		1693.36	-97.43	1693.36	-127.249
		1693.36	-127.249	1693.36	-127.249
				1693.36	-127.249
		1694.82	-102.686	1694.82	-106.19
		1694.82	-106.19	1694.82	-106.19
				1694.82	-106.19
		1696.29	-104.945	1696.29	-110.168
		1696.29	-110.168	1696.29	-110.168
				1696.29	-110.168
		1697.75	-97.3311	1697.75	-117.879
		1697.75	-117.879	1697.75	-117.879
				1697.75	-117.879
		1699.22	-96.5816	1699.22	-106.229
		1699.22	-106.229	1699.22	-106.229
				1699.22	-106.229
		1700.68	-96.2228	1700.68	-114.864
		1700.68	-114.864	1700.68	-114.864
				1700.68	-114.864
		1702.15	-91.5011	1702.15	-111.951
		1702.15	-111.951	1702.15	-111.951
				1702.15	-111.951
		1703.61	-104.703	1703.61	-111.013
		1703.61	-111.013	1703.61	-111.013
				1703.61	-111.013
		1705.08	-110.051	1705.08	-113.599
		1705.08	-113.599	1705.08	-113.599
				1705.08	-113.599
		1706.54	-102.976	1706.54	-113.777
		1706.54	-113.777	1706.54	-113.777
				1706.54	-113.777
		1708.01	-98.2881	1708.01	-113.563
		1708.01	-113.563	1708.01	-113.563
				1708.01	-113.563
		1709.47	-97.465	1709.47	-110.469
		1709.47	-110.469	1709.47	-110.469
				1709.47	-110.469
				1710.94	-109.771
				1710.94	-109.771
				1710.94	-109.771
		1712.4	-99.2024	1712.4	-110.5
		1712.4	-110.5	1712.4	-110.5
				1712.4	-110.5
		1713.87	-98.9002	1713.87	-120.164
		1713.87	-120.164	1713.87	-120.164
				1713.87	-120.164
		1715.33	-98.4114	1715.33	-113.311
		1715.33	-113.311	1715.33	-113.311
				1715.33	-113.311
		1716.8	-101.731	1716.8	-115.448
		1716.8	-115.448	1716.8	-115.448
				1716.8	-115.448
				1718.26	-109.818
				1718.26	-109.818
				1718.26	-109.818
1719.73	-42.3359			1719.73	-132.869
1719.73	-132.869			1719.73	-132.869
				1719.73	-132.869
		1721.19	-92.889	1721.19	-110.558
		1721.19	-110.558	1721.19	-110.558
				1721.19	-110.558
		1722.66	-100.536	1722.66	-111.705
		1722.66	-111.705	1722.66	-111.705
				1722.66	-111.705
		1724.12	-104.059	1724.12	-127.169
		1724.12	-127.169	1724.12	-127.169
				1724.12	-127.169
		1725.59	-106.306	1725.59	-112.969
		1725.59	-112.969	1725.59	-112.969
				1725.59	-112.969
		1727.05	-89.4064	1727.05	-109.336
		1727.05	-109.336	1727.05	-109.336
				1727.05	-109.336
		1728.52	-98.7569	1728.52	-107.163
		1728.52	-107.163	1728.52	-107.163
				1728.52	-107.163
		1729.98	-95.3117	1729.98	-115.079
		1729.98	-115.079	1729.98	-115.079
				1729.98	-115.079
		1731.45	-97.719	1731.45	-112.281
		1731.45	-112.281	1731.45	-112.281
				1731.45	-112.281
		1732.91	-97.1228	1732.91	-115.555
		1732.91	-115.555	1732.91	-115.555
				1732.91	-115.555
		1734.38	-105.32	1734.38	-113.023
		1734.38	-113.023	1734.38	-113.023
				1734.38	-113.023
		1735.84	-98.2758	1735.84	-108.258
		1735.84	-108.258	1735.84	-108.258
				1735.84	-108.258
		1737.3	-95.1655	1737.3	-107.833
		1737.3	-107.833	1737.3	-107.833
				1737.3	-107.833
				1738.77	-109.457
				1738.77	-109.457
				1738.77	-109.457
		1740.23	-103.769	1740.23	-105.788
		1740.23	-105.788	1740.23	-105.788
				1740.23	-105.788
		1741.7	-102.697	1741.7	-116.527
		1741.7	-116.527	1741.7	-116.527
				1741.7	-116.527
		1743.16	-108.585	1743.16	-114.535
		1743.16	-114.535	1743.16	-114.535
				1743.16	-114.535
		1744.63	-101.66	1744.63	-110.371
		1744.63	-110.371	1744.63	-110.371
				1744.63	-110.371
		1746.09	-96.7995	1746.09	-114.7
		1746.09	-114.7	1746.09	-114.7
				1746.09	-114.7
		1747.56	-93.0115	1747.56	-106.515
		1747.56	-106.515	1747.56	-106.515
				1747.56	-106.515
		1749.02	-99.435	1749.02	-119.897
		1749.02	-119.897	1749.02	-119.897
				1749.02	-119.897
		1750.49	-101.654	1750.49	-115.599
		1750.49	-115.599	1750.49	-115.599
				1750.49	-115.599
		1751.95	-97.1173	1751.95	-110.884
		1751.95	-110.884	1751.95	-110.884
				1751.95	-110.884
		1753.42	-93.4682	1753.42	-111.035
		1753.42	-111.035	1753.42	-111.035
				1753.42	-111.035
		1754.88	-97.6498	1754.88	-107.715
		1754.88	-107.715	1754.88	-107.715
				1754.88	-107.715
		1756.35	-97.9559	1756.35	-108.629
		1756.35	-108.629	1756.35	-108.629
				1756.35	-108.629
		1757.81	-97.0456	1757.81	-122.659
		1757.81	-122.659	1757.81	-122.659
				1757.81	-122.659
		1759.28	-108.044	1759.28	-117.373
		1759.28	-117.373	1759.28	-117.373
				1759.28	-117.373
		1760.74	-96.7414	1760.74	-122.112
		1760.74	-122.112	1760.74	-122.112
				1760.74	-122.112
		1762.21	-97.3704	1762.21	-116.781
		1762.21	-116.781	1762.21	-116.781
				1762.21	-116.781
		1763.67	-100.119	1763.67	-109.562
		1763.67	-109.562	1763.67	-109.562
				1763.67	-109.562
		1765.14	-97.2362	1765.14	-111.209
		1765.14	-111.209	1765.14	-111.209
				1765.14	-111.209
		1766.6	-104.734	1766.6	-108.015
		1766.6	-108.015	1766.6	-108.015
				1766.6	-108.015
		1768.07	-99.9674	1768.07	-119.418
		1768.07	-119.418	1768.07	-119.418
				1768.07	-119.418
1769.53	-42.4162			1769.53	-120.847
1769.53	-120.847			1769.53	-120.847
				1769.53	-120.847
		1771	-98.9807	1771	-114.533
		1771	-114.533	1771	-114.533
				1771	-114.533
		1772.46	-95.0902	1772.46	-103.419
		1772.46	-103.419	1772.46	-103.419
				1772.46	-103.419
		1773.93	-102.949	1773.93	-107.459
		1773.93	-107.459	1773.93	-107.459
				1773.93	-107.459
		1775.39	-97.6366	1775.39	-107.702
		1775.39	-107.702	1775.39	-107.702
				1775.39	-107.702
		1776.86	-99.6051	1776.86	-109.689
		1776.86	-109.689	1776.86	-109.689
				1776.86	-109.689
		1778.32	-97.3504	1778.32	-118.71
		1778.32	-118.71	1778.32	-118.71
				1778.32	-118.71
		1779.79	-97.3419	1779.79	-110.581
		1779.79	-110.581	1779.79	-110.581
				1779.79	-110.581
		1781.25	-98.7798	1781.25	-113.851
		1781.25	-113.851	1781.25	-113.851
				1781.25	-113.851
		1782.71	-107.177	1782.71	-112.426
		1782.71	-112.426	1782.71	-112.426
				1782.71	-112.426
		1784.18	-100.766	1784.18	-123.162
		1784.18	-123.162	1784.18	-123.162
				1784.18	-123.162
		1785.64	-98.8366	1785.64	-114.332
		1785.64	-114.332	1785.64	-114.332
				1785.64	-114.332
		1787.11	-101.03	1787.11	-114.012
		1787.11	-114.012	1787.11	-114.012
				1787.11	-114.012
		1788.57	-98.6805	1788.57	-114.245
		1788.57	-114.245	1788.57	-114.245
				1788.57	-114.245
		1790.04	-97.7898	1790.04	-111.002
		1790.04	-111.002	1790.04	-111.002
				1790.04	-111.002
		1791.5	-99.5108	1791.5	-114.916
		1791.5	-114.916	1791.5	-114.916
				1791.5	-114.916
		1792.97	-108.729	1792.97	-117.594
		1792.97	-117.594	1792.97	-117.594
				1792.97	-117.594
		1794.43	-99.9394	1794.43	-114.466
		1794.43	-114.466	1794.43	-114.466
				1794.43	-114.466
		1795.9	-99.4307	1795.9	-107.584
		1795.9	-107.584	1795.9	-107.584
				1795.9	-107.584
		1797.36	-106.735	1797.36	-115.32
		1797.36	-115.32	1797.36	-115.32
				1797.36	-115.32
		1798.83	-98.281	1798.83	-111.062
		1798.83	-111.062	1798.83	-111.062
				1798.83	-111.062
		1800.29	-105.181	1800.29	-108.009
		1800.29	-108.009	1800.29	-108.009
				1800.29	-108.009
		1801.76	-105.368	1801.76	-117.29
		1801.76	-117.29	1801.76	-117.29
				1801.76	-117.29
		1803.22	-98.3187	1803.22	-111.687
		1803.22	-111.687	1803.22	-111.687
				1803.22	-111.687
		1804.69	-98.4976	1804.69	-114.173
		1804.69	-114.173	1804.69	-114.173
				1804.69	-114.173
		1806.15	-98.2283	1806.15	-109.407
		1806.15	-109.407	1806.15	-109.407
				1806.15	-109.407
		1807.62	-99.9207	1807.62	-108.992
		1807.62	-108.992	1807.62	-108.992
				1807.62	-108.992
		1809.08	-101.197	1809.08	-114.816
		1809.08	-114.816	1809.08	-114.816
				1809.08	-114.816
		1810.55	-106.934	1810.55	-113.064
		1810.55	-113.064	1810.55	-113.064
				1810.55	-113.064
		1812.01	-103.075	1812.01	-106.126
		1812.01	-106.126	1812.01	-106.126
				1812.01	-106.126
				1813.48	-113.894
				1813.48	-113.894
				1813.48	-113.894
		1814.94	-106.421	1814.94	-108.658
		1814.94	-108.658	1814.94	-108.658
				1814.94	-108.658
		1816.41	-98.5464	1816.41	-111.197
		1816.41	-111.197	1816.41	-111.197
				1816.41	-111.197
		1817.87	-103.951	1817.87	-110.846
		1817.87	-110.846	1817.87	-110.846
				1817.87	-110.846
		1819.34	-99.977	1819.34	-117.461
		1819.34	-117.461	1819.34	-117.461
				1819.34	-117.461
		1820.8	-97.9225	1820.8	-113.388
		1820.8	-113.388	1820.8	-113.388
				1820.8	-113.388
1822.27	-42.5182			1822.27	-113.617
1822.27	-113.617			1822.27	-113.617
				1822.27	-113.617
		1823.73	-94.297	1823.73	-119.703
		1823.73	-119.703	1823.73	-119.703
				1823.73	-119.703
		1825.2	-94.3563	1825.2	-113.104
		1825.2	-113.104	1825.2	-113.104
				1825.2	-113.104
		1826.66	-96.2677	1826.66	-111.335
		1826.66	-111.335	1826.66	-111.335
				1826.66	-111.335
				1828.13	-105.346
				1828.13	-105.346
				1828.13	-105.346
				1829.59	-109.111
				1829.59	-109.111
				1829.59	-109.111
		1831.05	-92.6816	1831.05	-124.29
		1831.05	-124.29	1831.05	-124.29
				1831.05	-124.29
		1832.52	-96.5876	1832.52	-111.7
		1832.52	-111.7	1832.52	-111.7
				1832.52	-111.7
		1833.98	-102.905	1833.98	-112.833
		1833.98	-112.833	1833.98	-112.833
				1833.98	-112.833
		1835.45	-98.4274	1835.45	-110.225
		1835.45	-110.225	1835.45	-110.225
				1835.45	-110.225
		1836.91	-94.2089	1836.91	-123.122
		1836.91	-123.122	1836.91	-123.122
				1836.91	-123.122
		1838.38	-96.9506	1838.38	-115.736
		1838.38	-115.736	1838.38	-115.736
				1838.38	-115.736
		1839.84	-93.1671	1839.84	-112.876
		1839.84	-112.876	1839.84	-112.876
				1839.84	-112.876
		1841.31	-105.204	1841.31	-116.698
		1841.31	-116.698	1841.31	-116.698
				1841.31	-116.698
		1842.77	-97.362	1842.77	-107.89
		1842.77	-107.89	1842.77	-107.89
				1842.77	-107.89
		1844.24	-94.1748	1844.24	-107.446
		1844.24	-107.446	1844.24	-107.446
				1844.24	-107.446
		1845.7	-98.0966	1845.7	-109.051
		1845.7	-109.051	1845.7	-109.051
				1845.7	-109.051
		1847.17	-104.348	1847.17	-108.588
		1847.17	-108.588	1847.17	-108.588
				1847.17	-108.588
		1848.63	-99.9799	1848.63	-109.542
		1848.63	-109.542	1848.63	-109.542
				1848.63	-109.542
		1850.1	-100.756	1850.1	-119.755
		1850.1	-119.755	1850.1	-119.755
				1850.1	-119.755
				1851.56	-109.894
				1851.56	-109.894
				1851.56	-109.894
		1853.03	-96.454	1853.03	-117.318
		1853.03	-117.318	1853.03	-117.318
				1853.03	-117.318
		1854.49	-95.8227	1854.49	-104.945
		1854.49	-104.945	1854.49	-104.945
				1854.49	-104.945
		1855.96	-101.914	1855.96	-114.862
		1855.96	-114.862	1855.96	-114.862
				1855.96	-114.862
				1857.42	-116.777
				1857.42	-116.777
				1857.42	-116.777
		1858.89	-99.0117	1858.89	-112.453
		1858.89	-112.453	1858.89	-112.453
				1858.89	-112.453
		1860.35	-109.942	1860.35	-116.301
		1860.35	-116.301	1860.35	-116.301
				1860.35	-116.301
		1861.82	-95.6398	1861.82	-109.775
		1861.82	-109.775	1861.82	-109.775
				1861.82	-109.775
		1863.28	-96.9694	1863.28	-122.903
		1863.28	-122.903	1863.28	-122.903
				1863.28	-122.903
		1864.75	-98.3743	1864.75	-108.631
		1864.75	-108.631	1864.75	-108.631
				1864.75	-108.631
		1866.21	-93.5494	1866.21	-113.089
		1866.21	-113.089	1866.21	-113.089
				1866.21	-113.089
		1867.68	-106.382	1867.68	-108.653
		1867.68	-108.653	1867.68	-108.653
				1867.68	-108.653
		1869.14	-96.056	1869.14	-116.192
		1869.14	-116.192	1869.14	-116.192
				1869.14	-116.192
		1870.61	-98.1956	1870.61	-107.819
		1870.61	-107.819	1870.61	-107.819
				1870.61	-107.819
		1872.07	-96.6317	1872.07	-109.545
		1872.07	-109.545	1872.07	-109.545
				1872.07	-109.545
		1873.54	-103.877	1873.54	-112.859
		1873.54	-112.859	1873.54	-112.859
				1873.54	-112.859
1875	-42.6124			1875	-114.102
1875	-114.102			1875	-114.102
				1875	-114.102
		1876.46	-94.9182	1876.46	-116.401
		1876.46	-116.401	1876.46	-116.401
				1876.46	-116.401
		1877.93	-93.1837	1877.93	-113.096
		1877.93	-113.096	1877.93	-113.096
				1877.93	-113.096
		1879.39	-98.329	1879.39	-111.808
		1879.39	-111.808	1879.39	-111.808
				1879.39	-111.808
		1880.86	-106.094	1880.86	-109.98
		1880.86	-109.98	1880.86	-109.98
				1880.86	-109.98
		1882.32	-97.5814	1882.32	-106.67
		1882.32	-106.67	1882.32	-106.67
				1882.32	-106.67
		1883.79	-95.5408	1883.79	-112.195
		1883.79	-112.195	1883.79	-112.195
				1883.79	-112.195
		1885.25	-105.324	1885.25	-136.803
		1885.25	-136.803	1885.25	-136.803
				1885.25	-136.803
		1886.72	-94.9659	1886.72	-118.964
		1886.72	-118.964	1886.72	-118.964
				1886.72	-118.964
		1888.18	-95.572	1888.18	-110.318
		1888.18	-110.318	1888.18	-110.318
				1888.18	-110.318
		1889.65	-96.5103	1889.65	-128.791
		1889.65	-128.791	1889.65	-128.791
				1889.65	-128.791
		1891.11	-98.8588	1891.11	-116.185
		1891.11	-116.185	1891.11	-116.185
				1891.11	-116.185
		1892.58	-95.5798	1892.58	-117.443
		1892.58	-117.443	1892.58	-117.443
				1892.58	-117.443
		1894.04	-95.6457	1894.04	-114.002
		1894.04	-114.002	1894.04	-114.002
				1894.04	-114.002
		1895.51	-102.729	1895.51	-117.13
		1895.51	-117.13	1895.51	-117.13
				1895.51	-117.13
		1896.97	-100.655	1896.97	-108.231
		1896.97	-108.231	1896.97	-108.231
				1896.97	-108.231
		1898.44	-100.379	1898.44	-122.985
		1898.44	-122.985	1898.44	-122.985
				1898.44	-122.985
		1899.9	-97.0908	1899.9	-110.068
		1899.9	-110.068	1899.9	-110.068
				1899.9	-110.068
		1901.37	-112.063	1901.37	-115.338
		1901.37	-115.338	1901.37	-115.338
				1901.37	-115.338
		1902.83	-103.403	1902.83	-112.275
		1902.83	-112.275	1902.83	-112.275
				1902.83	-112.275
		1904.3	-103.062	1904.3	-117.156
		1904.3	-117.156	1904.3	-117.156
				1904.3	-117.156
		1905.76	-111.652	1905.76	-123.831
		1905.76	-123.831	1905.76	-123.831
				1905.76	-123.831
		1907.23	-98.7911	1907.23	-110.968
		1907.23	-110.968	1907.23	-110.968
				1907.23	-110.968
		1908.69	-94.7323	1908.69	-110.806
		1908.69	-110.806	1908.69	-110.806
				1908.69	-110.806
				1910.16	-115.644
				1910.16	-115.644
				1910.16	-115.644
		1911.62	-103.947	1911.62	-113.717
		1911.62	-113.717	1911.62	-113.717
				1911.62	-113.717
		1913.09	-98.5389	1913.09	-112.129
		1913.09	-112.129	1913.09	-112.129
				1913.09	-112.129
		1914.55	-98.5491	1914.55	-115.712
		1914.55	-115.712	1914.55	-115.712
				1914.55	-115.712
		1916.02	-99.5916	1916.02	-109.341
		1916.02	-109.341	1916.02	-109.341
				1916.02	-109.341
		1917.48	-106.358	1917.48	-110.052
		1917.48	-110.052	1917.48	-110.052
				1917.48	-110.052
		1918.95	-102.74	1918.95	-118.796
		1918.95	-118.796	1918.95	-118.796
				1918.95	-118.796
				1920.41	-116.39
				1920.41	-116.39
				1920.41	-116.39
		1921.88	-97.2633	1921.88	-117.315
		1921.88	-117.315	1921.88	-117.315
				1921.88	-117.315
		1923.34	-97.746	1923.34	-135.784
		1923.34	-135.784	1923.34	-135.784
				1923.34	-135.784
		1924.8	-104.07	1924.8	-115.081
		1924.8	-115.081	1924.8	-115.081
				1924.8	-115.081
		1926.27	-102.739	1926.27	-122.038
		1926.27	-122.038	1926.27	-122.038
				1926.27	-122.038
		1927.73	-98.3427	1927.73	-106.242
		1927.73	-106.242	1927.73	-106.242
				1927.73	-106.242
				1929.2	-114.894
				1929.2	-114.894
				1929.2	-114.894
1930.66	-42.724			1930.66	-117.721
1930.66	-117.721			1930.66	-117.721
				1930.66	-117.721
		1932.13	-98.1065	1932.13	-108.376
		1932.13	-108.376	1932.13	-108.376
				1932.13	-108.376
		1933.59	-94.415	1933.59	-114.926
		1933.59	-114.926	1933.59	-114.926
				1933.59	-114.926
				1935.06	-112.456
				1935.06	-112.456
				1935.06	-112.456
		1936.52	-96.2881	1936.52	-118.393
		1936.52	-118.393	1936.52	-118.393
				1936.52	-118.393
		1937.99	-109.142	1937.99	-118.904
		1937.99	-118.904	1937.99	-118.904
				1937.99	-118.904
		1939.45	-102.534	1939.45	-121.869
		1939.45	-121.869	1939.45	-121.869
				1939.45	-121.869
		1940.92	-98.3872	1940.92	-114.788
		1940.92	-114.788	1940.92	-114.788
				1940.92	-114.788
		1942.38	-101.182	1942.38	-122.932
		1942.38	-122.932	1942.38	-122.932
				1942.38	-122.932
		1943.85	-102.731	1943.85	-112.103
		1943.85	-112.103	1943.85	-112.103
				1943.85	-112.103
		1945.31	-98.865	1945.31	-113.498
		1945.31	-113.498	1945.31	-113.498
				1945.31	-113.498
		1946.78	-104.841	1946.78	-115.894
		1946.78	-115.894	1946.78	-115.894
				1946.78	-115.894
		1948.24	-112.556	1948.24	-119.86
		1948.24	-119.86	1948.24	-119.86
				1948.24	-119.86
				1949.71	-112.623
				1949.71	-112.623
				1949.71	-112.623
		1951.17	-103.667	1951.17	-110.39
		1951.17	-110.39	1951.17	-110.39
				1951.17	-110.39
		1952.64	-97.4189	1952.64	-115.549
		1952.64	-115.549	1952.64	-115.549
				1952.64	-115.549
		1954.1	-97.5351	1954.1	-107.934
		1954.1	-107.934	1954.1	-107.934
				1954.1	-107.934
		1955.57	-96.9242	1955.57	-114.495
		1955.57	-114.495	1955.57	-114.495
				1955.57	-114.495
		1957.03	-96.9258	1957.03	-114.059
		1957.03	-114.059	1957.03	-114.059
				1957.03	-114.059
		1958.5	-102.014	1958.5	-116.513
		1958.5	-116.513	1958.5	-116.513
				1958.5	-116.513
		1959.96	-94.9575	1959.96	-110.465
		1959.96	-110.465	1959.96	-110.465
				1959.96	-110.465
		1961.43	-104.791	1961.43	-121.205
		1961.43	-121.205	1961.43	-121.205
				1961.43	-121.205
		1962.89	-107.013	1962.89	-111.506
		1962.89	-111.506	1962.89	-111.506
				1962.89	-111.506
				1964.36	-108.603
				1964.36	-108.603
				1964.36	-108.603
		1965.82	-106.928	1965.82	-113.936
		1965.82	-113.936	1965.82	-113.936
				1965.82	-113.936
		1967.29	-96.6566	1967.29	-114.447
		1967.29	-114.447	1967.29	-114.447
				1967.29	-114.447
		1968.75	-96.6504	1968.75	-112.227
		1968.75	-112.227	1968.75	-112.227
				1968.75	-112.227
		1970.21	-98.7596	1970.21	-103.87
		1970.21	-103.87	1970.21	-103.87
				1970.21	-103.87
		1971.68	-103.472	1971.68	-111.064
		1971.68	-111.064	1971.68	-111.064
				1971.68	-111.064
		1973.14	-99.8283	1973.14	-110.23
		1973.14	-110.23	1973.14	-110.23
				1973.14	-110.23
		1974.61	-101.102	1974.61	-113.681
		1974.61	-113.681	1974.61	-113.681
				1974.61	-113.681
		1976.07	-100.258	1976.07	-125.663
		1976.07	-125.663	1976.07	-125.663
				1976.07	-125.663
		1977.54	-111.038	1977.54	-127.529
		1977.54	-127.529	1977.54	-127.529
				1977.54	-127.529
		1979	-101.068	1979	-120.58
		1979	-120.58	1979	-120.58
				1979	-120.58
		1980.47	-98.8582	1980.47	-109.492
		1980.47	-109.492	1980.47	-109.492
				1980.47	-109.492
		1981.93	-102.99	1981.93	-109.792
		1981.93	-109.792	1981.93	-109.792
				1981.93	-109.792
		1983.4	-98.4664	1983.4	-114.467
		1983.4	-114.467	1983.4	-114.467
				1983.4	-114.467
		1984.86	-101.283	1984.86	-112.162
		1984.86	-112.162	1984.86	-112.162
				1984.86	-112.162
1986.33	-42.839			1986.33	-110.986
1986.33	-110.986			1986.33	-110.986
				1986.33	-110.986
		1987.79	-93.8283	1987.79	-114.59
		1987.79	-114.59	1987.79	-114.59
				1987.79	-114.59
		1989.26	-102.611	1989.26	-117.787
		1989.26	-117.787	1989.26	-117.787
				1989.26	-117.787
		1990.72	-104.012	1990.72	-116.497
		1990.72	-116.497	1990.72	-116.497
				1990.72	-116.497
		1992.19	-101.897	1992.19	-113.476
		1992.19	-113.476	1992.19	-113.476
				1992.19	-113.476
		1993.65	-100.504	1993.65	-118.446
		1993.65	-118.446	1993.65	-118.446
				1993.65	-118.446
		1995.12	-98.904	1995.12	-108.619
		1995.12	-108.619	1995.12	-108.619
				1995.12	-108.619
		1996.58	-98.1008	1996.58	-113.318
		1996.58	-113.318	1996.58	-113.318
				1996.58	-113.318
		1998.05	-102.142	1998.05	-126.464
		1998.05	-126.464	1998.05	-126.464
				1998.05	-126.464
		1999.51	-100.616	1999.51	-124.695
		1999.51	-124.695	1999.51	-124.695
				1999.51	-124.695
		2000.98	-99.7181	2000.98	-109.425
		2000.98	-109.425	2000.98	-109.425
				2000.98	-109.425
		2002.44	-103.518	2002.44	-129.471
		2002.44	-129.471	2002.44	-129.471
				2002.44	-129.471
		2003.91	-106.78	2003.91	-124.167
		2003.91	-124.167	2003.91	-124.167
				2003.91	-124.167
		2005.37	-98.8325	2005.37	-119.297
		2005.37	-119.297	2005.37	-119.297
				2005.37	-119.297
				2006.84	-105.757
				2006.84	-105.757
				2006.84	-105.757
		2008.3	-105.04	2008.3	-111.313
		2008.3	-111.313	2008.3	-111.313
				2008.3	-111.313
		2009.77	-112.848	2009.77	-120.872
		2009.77	-120.872	2009.77	-120.872
				2009.77	-120.872
				2011.23	-108.227
				2011.23	-108.227
				2011.23	-108.227
		2012.7	-101.86	2012.7	-112.464
		2012.7	-112.464	2012.7	-112.464
				2012.7	-112.464
		2014.16	-106.149	2014.16	-110.367
		2014.16	-110.367	2014.16	-110.367
				2014.16	-110.367
		2015.63	-95.1781	2015.63	-106.266
		2015.63	-106.266	2015.63	-106.266
				2015.63	-106.266
		2017.09	-103.519	2017.09	-110.904
		2017.09	-110.904	2017.09	-110.904
				2017.09	-110.904
		2018.55	-97.6396	2018.55	-105.63
		2018.55	-105.63	2018.55	-105.63
				2018.55	-105.63
		2020.02	-108.056	2020.02	-116.119
		2020.02	-116.119	2020.02	-116.119
				2020.02	-116.119
		2021.48	-99.0637	2021.48	-111.543
		2021.48	-111.543	2021.48	-111.543
				2021.48	-111.543
		2022.95	-98.2192	2022.95	-109.447
		2022.95	-109.447	2022.95	-109.447
				2022.95	-109.447
		2024.41	-98.721	2024.41	-126.101
		2024.41	-126.101	2024.41	-126.101
				2024.41	-126.101
		2025.88	-103.874	2025.88	-108.016
		2025.88	-108.016	2025.88	-108.016
				2025.88	-108.016
		2027.34	-102.911	2027.34	-118.765
		2027.34	-118.765	2027.34	-118.765
				2027.34	-118.765
		2028.81	-104.451	2028.81	-107.666
		2028.81	-107.666	2028.81	-107.666
				2028.81	-107.666
		2030.27	-104.81	2030.27	-113.207
		2030.27	-113.207	2030.27	-113.207
				2030.27	-113.207
		2031.74	-98.7489	2031.74	-113.633
		2031.74	-113.633	2031.74	-113.633
				2031.74	-113.633
		2033.2	-93.9029	2033.2	-135.889
		2033.2	-135.889	2033.2	-135.889
				2033.2	-135.889
		2034.67	-102.947	2034.67	-117.841
		2034.67	-117.841	2034.67	-117.841
				2034.67	-117.841
		2036.13	-102.861	2036.13	-119.054
		2036.13	-119.054	2036.13	-119.054
				2036.13	-119.054
		2037.6	-95.2793	2037.6	-107.472
		2037.6	-107.472	2037.6	-107.472
				2037.6	-107.472
		2039.06	-98.8961	2039.06	-105.653
		2039.06	-105.653	2039.06	-105.653
				2039.06	-105.653
		2040.53	-102.46	2040.53	-133.458
		2040.53	-133.458	2040.53	-133.458
				2040.53	-133.458
		2041.99	-104.275	2041.99	-109.368
		2041.99	-109.368	2041.99	-109.368
				2041.99	-109.368
		2043.46	-102.922	2043.46	-108.796
		2043.46	-108.796	2043.46	-108.796
				2043.46	-108.796
2044.92	-42.9514			2044.92	-107.007
2044.92	-107.007			2044.92	-107.007
				2044.92	-107.007
		2046.39	-95.6607	2046.39	-107.682
		2046.39	-107.682	2046.39	-107.682
				2046.39	-107.682
				2047.85	-107.622
				2047.85	-107.622
				2047.85	-107.622
		2049.32	-96.7964	2049.32	-122.475
		2049.32	-122.475	2049.32	-122.475
				2049.32	-122.475
		2050.78	-104.454	2050.78	-110.269
		2050.78	-110.269	2050.78	-110.269
				2050.78	-110.269
		2052.25	-98.5272	2052.25	-107.532
		2052.25	-107.532	2052.25	-107.532
				2052.25	-107.532
		2053.71	-104.843	2053.71	-123.784
		2053.71	-123.784	2053.71	-123.784
				2053.71	-123.784
		2055.18	-96.5449	2055.18	-122.455
		2055.18	-122.455	2055.18	-122.455
				2055.18	-122.455
				2056.64	-105.833
				2056.64	-105.833
				2056.64	-105.833
		2058.11	-98.867	2058.11	-110.651
		2058.11	-110.651	2058.11	-110.651
				2058.11	-110.651
		2059.57	-107.12	2059.57	-116.27
		2059.57	-116.27	2059.57	-116.27
				2059.57	-116.27
		2061.04	-100.423	2061.04	-119.223
		2061.04	-119.223	2061.04	-119.223
				2061.04	-119.223
		2062.5	-96.1119	2062.5	-114.541
		2062.5	-114.541	2062.5	-114.541
				2062.5	-114.541
		2063.96	-104.787	2063.96	-108.791
		2063.96	-108.791	2063.96	-108.791
				2063.96	-108.791
				2065.43	-116.062
				2065.43	-116.062
				2065.43	-116.062
		2066.89	-104.711	2066.89	-107.965
		2066.89	-107.965	2066.89	-107.965
				2066.89	-107.965
		2068.36	-103.093	2068.36	-108.959
		2068.36	-108.959	2068.36	-108.959
				2068.36	-108.959
		2069.82	-96.5619	2069.82	-110.794
		2069.82	-110.794	2069.82	-110.794
				2069.82	-110.794
		2071.29	-104.504	2071.29	-106.598
		2071.29	-106.598	2071.29	-106.598
				2071.29	-106.598
		2072.75	-100.7	2072.75	-111.32
		2072.75	-111.32	2072.75	-111.32
				2072.75	-111.32
		2074.22	-99.1874	2074.22	-103.87
		2074.22	-103.87	2074.22	-103.87
				2074.22	-103.87
		2075.68	-96.1746	2075.68	-110.226
		2075.68	-110.226	2075.68	-110.226
				2075.68	-110.226
		2077.15	-102.426	2077.15	-113.328
		2077.15	-113.328	2077.15	-113.328
				2077.15	-113.328
		2078.61	-100.438	2078.61	-109.119
		2078.61	-109.119	2078.61	-109.119
				2078.61	-109.119
		2080.08	-99.8784	2080.08	-115.449
		2080.08	-115.449	2080.08	-115.449
				2080.08	-115.449
		2081.54	-104.148	2081.54	-113.388
		2081.54	-113.388	2081.54	-113.388
				2081.54	-113.388
		2083.01	-103.594	2083.01	-113.785
		2083.01	-113.785	2083.01	-113.785
				2083.01	-113.785
		2084.47	-102.7	2084.47	-119.282
		2084.47	-119.282	2084.47	-119.282
				2084.47	-119.282
		2085.94	-113.659	2085.94	-121
		2085.94	-121	2085.94	-121
				2085.94	-121
		2087.4	-95.3597	2087.4	-119.439
		2087.4	-119.439	2087.4	-119.439
				2087.4	-119.439
		2088.87	-105.26	2088.87	-110.799
		2088.87	-110.799	2088.87	-110.799
				2088.87	-110.799
				2090.33	-112.055
				2090.33	-112.055
				2090.33	-112.055
		2091.8	-106.662	2091.8	-116.86
		2091.8	-116.86	2091.8	-116.86
				2091.8	-116.86
		2093.26	-103.21	2093.26	-119.248
		2093.26	-119.248	2093.26	-119.248
				2093.26	-119.248
		2094.73	-110.492	2094.73	-116.632
		2094.73	-116.632	2094.73	-116.632
				2094.73	-116.632
		2096.19	-111.593	2096.19	-113.875
		2096.19	-113.875	2096.19	-113.875
				2096.19	-113.875
		2097.66	-108.957	2097.66	-114.953
		2097.66	-114.953	2097.66	-114.953
				2097.66	-114.953
		2099.12	-102.394	2099.12	-110.858
		2099.12	-110.858	2099.12	-110.858
				2099.12	-110.858
		2100.59	-110.453	2100.59	-112.051
		2100.59	-112.051	2100.59	-112.051
				2100.59	-112.051
		2102.05	-100.659	2102.05	-109.154
		2102.05	-109.154	2102.05	-109.154
				2102.05	-109.154
		2103.52	-102.236	2103.52	-117.093
		2103.52	-117.093	2103.52	-117.093
				2103.52	-117.093
		2104.98	-98.3103	2104.98	-123.649
		2104.98	-123.649	2104.98	-123.649
				2104.98	-123.649
		2106.45	-103.868	2106.45	-115.17
		2106.45	-115.17	2106.45	-115.17
				2106.45	-115.17
		2107.91	-100.4	2107.91	-111.301
		2107.91	-111.301	2107.91	-111.301
				2107.91	-111.301
		2109.38	-98.5729	2109.38	-108.153
		2109.38	-108.153	2109.38	-108.153
				2109.38	-108.153
		2110.84	-99.9552	2110.84	-113.661
		2110.84	-113.661	2110.84	-113.661
				2110.84	-113.661
		2112.3	-110.987	2112.3	-122.341
		2112.3	-122.341	2112.3	-122.341
				2112.3	-122.341
		2113.77	-105.674	2113.77	-113.753
		2113.77	-113.753	2113.77	-113.753
				2113.77	-113.753
				2115.23	-107.261
				2115.23	-107.261
				2115.23	-107.261
		2116.7	-100.57	2116.7	-117.994
		2116.7	-117.994	2116.7	-117.994
				2116.7	-117.994
		2118.16	-109.559	2118.16	-112.776
		2118.16	-112.776	2118.16	-112.776
				2118.16	-112.776
		2119.63	-102.256	2119.63	-114.741
		2119.63	-114.741	2119.63	-114.741
				2119.63	-114.741
		2121.09	-95.6682	2121.09	-113.312
		2121.09	-113.312	2121.09	-113.312
				2121.09	-113.312
		2122.56	-106.531	2122.56	-110.625
		2122.56	-110.625	2122.56	-110.625
				2122.56	-110.625
		2124.02	-104.26	2124.02	-115.047
		2124.02	-115.047	2124.02	-115.047
				2124.02	-115.047
		2125.49	-103.352	2125.49	-114.495
		2125.49	-114.495	2125.49	-114.495
				2125.49	-114.495
		2126.95	-103.783	2126.95	-121.534
		2126.95	-121.534	2126.95	-121.534
				2126.95	-121.534
		2128.42	-103.031	2128.42	-114.599
		2128.42	-114.599	2128.42	-114.599
				2128.42	-114.599
		2129.88	-106.223	2129.88	-114.1
		2129.88	-114.1	2129.88	-114.1
				2129.88	-114.1
		2131.35	-105.364	2131.35	-121.273
		2131.35	-121.273	2131.35	-121.273
				2131.35	-121.273
		2132.81	-96.0734	2132.81	-115.952
		2132.81	-115.952	2132.81	-115.952
				2132.81	-115.952
		2134.28	-97.8857	2134.28	-107.507
		2134.28	-107.507	2134.28	-107.507
				2134.28	-107.507
		2135.74	-103.475	2135.74	-113.216
		2135.74	-113.216	2135.74	-113.216
				2135.74	-113.216
		2137.21	-96.6055	2137.21	-113.501
		2137.21	-113.501	2137.21	-113.501
				2137.21	-113.501
		2138.67	-106.861	2138.67	-114.636
		2138.67	-114.636	2138.67	-114.636
				2138.67	-114.636
				2140.14	-109.472
				2140.14	-109.472
				2140.14	-109.472
		2141.6	-105.761	2141.6	-109.589
		2141.6	-109.589	2141.6	-109.589
				2141.6	-109.589
		2143.07	-108.443	2143.07	-119.988
		2143.07	-119.988	2143.07	-119.988
				2143.07	-119.988
				2144.53	-108.793
				2144.53	-108.793
				2144.53	-108.793
		2146	-106.8	2146	-119.194
		2146	-119.194	2146	-119.194
				2146	-119.194
		2147.46	-97.3306	2147.46	-106.234
		2147.46	-106.234	2147.46	-106.234
				2147.46	-106.234
		2148.93	-104.834	2148.93	-112.124
		2148.93	-112.124	2148.93	-112.124
				2148.93	-112.124
		2150.39	-95.8228	2150.39	-113.291
		2150.39	-113.291	2150.39	-113.291
				2150.39	-113.291
		2151.86	-101.945	2151.86	-114.485
		2151.86	-114.485	2151.86	-114.485
				2151.86	-114.485
		2153.32	-100.49	2153.32	-111.16
		2153.32	-111.16	2153.32	-111.16
				2153.32	-111.16
		2154.79	-100.543	2154.79	-106.929
		2154.79	-106.929	2154.79	-106.929
				2154.79	-106.929
		2156.25	-103.153	2156.25	-119.062
		2156.25	-119.062	2156.25	-119.062
				2156.25	-119.062
		2157.71	-101.922	2157.71	-114.64
		2157.71	-114.64	2157.71	-114.64
				2157.71	-114.64
		2159.18	-96.2403	2159.18	-108.492
		2159.18	-108.492	2159.18	-108.492
				2159.18	-108.492
		2160.64	-99.2375	2160.64	-118.182
		2160.64	-118.182	2160.64	-118.182
				2160.64	-118.182
		2162.11	-107.275	2162.11	-122.963
		2162.11	-122.963	2162.11	-122.963
				2162.11	-122.963
				2163.57	-109.259
				2163.57	-109.259
				2163.57	-109.259
		2165.04	-99.6946	2165.04	-112.786
		2165.04	-112.786	2165.04	-112.786
				2165.04	-112.786
				2166.5	-112.383
				2166.5	-112.383
				2166.5	-112.383
		2167.97	-102.341	2167.97	-111.938
		2167.97	-111.938	2167.97	-111.938
				2167.97	-111.938
		2169.43	-104.477	2169.43	-112.526
		2169.43	-112.526	2169.43	-112.526
				2169.43	-112.526
		2170.9	-102.909	2170.9	-111.588
		2170.9	-111.588	2170.9	-111.588
				2170.9	-111.588
		2172.36	-106.215	2172.36	-114.176
		2172.36	-114.176	2172.36	-114.176
				2172.36	-114.176
		2173.83	-99.2669	2173.83	-114.937
		2173.83	-114.937	2173.83	-114.937
				2173.83	-114.937
		2175.29	-106.277	2175.29	-113.176
		2175.29	-113.176	2175.29	-113.176
				2175.29	-113.176
				2176.76	-107.767
				2176.76	-107.767
				2176.76	-107.767
		2178.22	-103.517	2178.22	-111.644
		2178.22	-111.644	2178.22	-111.644
				2178.22	-111.644
		2179.69	-102.405	2179.69	-131.246
		2179.69	-131.246	2179.69	-131.246
				2179.69	-131.246
		2181.15	-105.116	2181.15	-119.355
		2181.15	-119.355	2181.15	-119.355
				2181.15	-119.355
		2182.62	-101.455	2182.62	-126.6
		2182.62	-126.6	2182.62	-126.6
				2182.62	-126.6
		2184.08	-95.7689	2184.08	-117.297
		2184.08	-117.297	2184.08	-117.297
				2184.08	-117.297
				2185.55	-110.258
				2185.55	-110.258
				2185.55	-110.258
		2187.01	-106.452	2187.01	-114.067
		2187.01	-114.067	2187.01	-114.067
				2187.01	-114.067
		2188.48	-101.097	2188.48	-119.579
		2188.48	-119.579	2188.48	-119.579
				2188.48	-119.579
				2189.94	-108.156
				2189.94	-108.156
				2189.94	-108.156
		2191.41	-99.4916	2191.41	-109.157
		2191.41	-109.157	2191.41	-109.157
				2191.41	-109.157
		2192.87	-103.078	2192.87	-115.68
		2192.87	-115.68	2192.87	-115.68
				2192.87	-115.68
		2194.34	-95.2641	2194.34	-118.688
		2194.34	-118.688	2194.34	-118.688
				2194.34	-118.688
		2195.8	-101.265	2195.8	-116.938
		2195.8	-116.938	2195.8	-116.938
				2195.8	-116.938
		2197.27	-102.481	2197.27	-124.621
		2197.27	-124.621	2197.27	-124.621
				2197.27	-124.621
		2198.73	-100.944	2198.73	-116.556
		2198.73	-116.556	2198.73	-116.556
				2198.73	-116.556
		2200.2	-100.923	2200.2	-116.509
		2200.2	-116.509	2200.2	-116.509
				2200.2	-116.509
		2201.66	-107.582	2201.66	-112.89
		2201.66	-112.89	2201.66	-112.89
				2201.66	-112.89
		2203.13	-102.866	2203.13	-114.071
		2203.13	-114.071	2203.13	-114.071
				2203.13	-114.071
		2204.59	-97.0736	2204.59	-117.433
		2204.59	-117.433	2204.59	-117.433
				2204.59	-117.433
		2206.05	-98.9971	2206.05	-114.077
		2206.05	-114.077	2206.05	-114.077
				2206.05	-114.077
		2207.52	-105.78	2207.52	-116.726
		2207.52	-116.726	2207.52	-116.726
				2207.52	-116.726
		2208.98	-99.6106	2208.98	-121.146
		2208.98	-121.146	2208.98	-121.146
				2208.98	-121.146
		2210.45	-106.329	2210.45	-114.046
		2210.45	-114.046	2210.45	-114.046
				2210.45	-114.046
		2211.91	-102.16	2211.91	-124.937
		2211.91	-124.937	2211.91	-124.937
				2211.91	-124.937
		2213.38	-103.44	2213.38	-106.2
		2213.38	-106.2	2213.38	-106.2
				2213.38	-106.2
		2214.84	-102.668	2214.84	-112.448
		2214.84	-112.448	2214.84	-112.448
				2214.84	-112.448
		2216.31	-101.245	2216.31	-124.052
		2216.31	-124.052	2216.31	-124.052
				2216.31	-124.052
		2217.77	-104.096	2217.77	-119.326
		2217.77	-119.326	2217.77	-119.326
				2217.77	-119.326
		2219.24	-101.298	2219.24	-115.904
		2219.24	-115.904	2219.24	-115.904
				2219.24	-115.904
		2220.7	-101.588	2220.7	-110.71
		2220.7	-110.71	2220.7	-110.71
				2220.7	-110.71
		2222.17	-105.708	2222.17	-120.787
		2222.17	-120.787	2222.17	-120.787
				2222.17	-120.787
				2223.63	-110.991
				2223.63	-110.991
				2223.63	-110.991
				2225.1	-112.449
				2225.1	-112.449
				2225.1	-112.449
		2226.56	-102.894	2226.56	-107.81
		2226.56	-107.81	2226.56	-107.81
				2226.56	-107.81
		2228.03	-104.718	2228.03	-109.309
		2228.03	-109.309	2228.03	-109.309
				2228.03	-109.309
		2229.49	-99.1457	2229.49	-125.888
		2229.49	-125.888	2229.49	-125.888
				2229.49	-125.888
		2230.96	-97.3027	2230.96	-109.12
		2230.96	-109.12	2230.96	-109.12
				2230.96	-109.12
				2232.42	-107.738
				2232.42	-107.738
				2232.42	-107.738
		2233.89	-100.174	2233.89	-112.543
		2233.89	-112.543	2233.89	-112.543
				2233.89	-112.543
				2235.35	-107.161
				2235.35	-107.161
				2235.35	-107.161
		2236.82	-98.1005	2236.82	-118.765
		2236.82	-118.765	2236.82	-118.765
				2236.82	-118.765
		2238.28	-100.638	2238.28	-115.389
		2238.28	-115.389	2238.28	-115.389
				2238.28	-115.389
		2239.75	-105.803	2239.75	-107.776
		2239.75	-107.776	2239.75	-107.776
				2239.75	-107.776
		2241.21	-97.6326	2241.21	-111.796
		2241.21	-111.796	2241.21	-111.796
				2241.21	-111.796
				2242.68	-108.895
				2242.68	-108.895
				2242.68	-108.895
		2244.14	-102.35	2244.14	-133.317
		2244.14	-133.317	2244.14	-133.317
				2244.14	-133.317
				2245.61	-108.76
				2245.61	-108.76
				2245.61	-108.76
		2247.07	-103.925	2247.07	-106.051
		2247.07	-106.051	2247.07	-106.051
				2247.07	-106.051
		2248.54	-105.434	2248.54	-109.178
		2248.54	-109.178	2248.54	-109.178
				2248.54	-109.178
		2250	-111.505	2250	-125.896
		2250	-125.896	2250	-125.896
				2250	-125.896
		2251.46	-101.371	2251.46	-107.027
		2251.46	-107.027	2251.46	-107.027
				2251.46	-107.027
		2252.93	-98.812	2252.93	-109.044
		2252.93	-109.044	2252.93	-109.044
				2252.93	-109.044
		2254.39	-100.479	2254.39	-117.874
		2254.39	-117.874	2254.39	-117.874
				2254.39	-117.874
		2255.86	-93.8494	2255.86	-141.048
		2255.86	-141.048	2255.86	-141.048
				2255.86	-141.048
				2257.32	-109.802
				2257.32	-109.802
				2257.32	-109.802
				2258.79	-110.983
				2258.79	-110.983
				2258.79	-110.983
		2260.25	-105.787	2260.25	-115.223
		2260.25	-115.223	2260.25	-115.223
				2260.25	-115.223
		2261.72	-112.568	2261.72	-117.348
		2261.72	-117.348	2261.72	-117.348
				2261.72	-117.348
				2263.18	-109.65
				2263.18	-109.65
				2263.18	-109.65
		2264.65	-102.007	2264.65	-112.553
		2264.65	-112.553	2264.65	-112.553
				2264.65	-112.553
		2266.11	-104.679	2266.11	-121.302
		2266.11	-121.302	2266.11	-121.302
				2266.11	-121.302
		2267.58	-98.2539	2267.58	-112.303
		2267.58	-112.303	2267.58	-112.303
				2267.58	-112.303
		2269.04	-106.703	2269.04	-114.139
		2269.04	-114.139	2269.04	-114.139
				2269.04	-114.139
		2270.51	-100.262	2270.51	-112.811
		2270.51	-112.811	2270.51	-112.811
				2270.51	-112.811
		2271.97	-104.707	2271.97	-119.889
		2271.97	-119.889	2271.97	-119.889
				2271.97	-119.889
		2273.44	-101.813	2273.44	-111.053
		2273.44	-111.053	2273.44	-111.053
				2273.44	-111.053
		2274.9	-100.969	2274.9	-132.066
		2274.9	-132.066	2274.9	-132.066
				2274.9	-132.066
		2276.37	-106.174	2276.37	-113.226
		2276.37	-113.226	2276.37	-113.226
				2276.37	-113.226
		2277.83	-98.2321	2277.83	-114.445
		2277.83	-114.445	2277.83	-114.445
				2277.83	-114.445
		2279.3	-106.396	2279.3	-116.434
		2279.3	-116.434	2279.3	-116.434
				2279.3	-116.434
		2280.76	-109.513	2280.76	-119.31
		2280.76	-119.31	2280.76	-119.31
				2280.76	-119.31
		2282.23	-110.154	2282.23	-115.712
		2282.23	-115.712	2282.23	-115.712
				2282.23	-115.712
		2283.69	-101.084	2283.69	-113.775
		2283.69	-113.775	2283.69	-113.775
				2283.69	-113.775
		2285.16	-111.545	2285.16	-129.849
		2285.16	-129.849	2285.16	-129.849
				2285.16	-129.849
		2286.62	-98.7781	2286.62	-112.732
		2286.62	-112.732	2286.62	-112.732
				2286.62	-112.732
		2288.09	-103.929	2288.09	-114.624
		2288.09	-114.624	2288.09	-114.624
				2288.09	-114.624
		2289.55	-103.273	2289.55	-132.132
		2289.55	-132.132	2289.55	-132.132
				2289.55	-132.132
		2291.02	-104.011	2291.02	-118.409
		2291.02	-118.409	2291.02	-118.409
				2291.02	-118.409
		2292.48	-98.7364	2292.48	-113.212
		2292.48	-113.212	2292.48	-113.212
				2292.48	-113.212
		2293.95	-109.495	2293.95	-113.262
		2293.95	-113.262	2293.95	-113.262
				2293.95	-113.262
		2295.41	-100.293	2295.41	-113.651
		2295.41	-113.651	2295.41	-113.651
				2295.41	-113.651
		2296.88	-101.131	2296.88	-106.989
		2296.88	-106.989	2296.88	-106.989
				2296.88	-106.989
		2298.34	-105.535	2298.34	-113.234
		2298.34	-113.234	2298.34	-113.234
				2298.34	-113.234
		2299.8	-110.54	2299.8	-113.653
		2299.8	-113.653	2299.8	-113.653
				2299.8	-113.653
				2301.27	-114.085
				2301.27	-114.085
				2301.27	-114.085
		2302.73	-104.989	2302.73	-113.139
		2302.73	-113.139	2302.73	-113.139
				2302.73	-113.139
		2304.2	-100.698	2304.2	-108.882
		2304.2	-108.882	2304.2	-108.882
				2304.2	-108.882
		2305.66	-99.3004	2305.66	-118.262
		2305.66	-118.262	2305.66	-118.262
				2305.66	-118.262
				2307.13	-110.259
				2307.13	-110.259
				2307.13	-110.259
		2308.59	-99.5282	2308.59	-113.42
		2308.59	-113.42	2308.59	-113.42
				2308.59	-113.42
		2310.06	-102.342	2310.06	-109.814
		2310.06	-109.814	2310.06	-109.814
				2310.06	-109.814
		2311.52	-110.594	2311.52	-112.787
		2311.52	-112.787	2311.52	-112.787
				2311.52	-112.787
		2312.99	-103.274	2312.99	-116.435
		2312.99	-116.435	2312.99	-116.435
				2312.99	-116.435
		2314.45	-100.517	2314.45	-110.826
		2314.45	-110.826	2314.45	-110.826
				2314.45	-110.826
		2315.92	-104.136	2315.92	-121.8
		2315.92	-121.8	2315.92	-121.8
				2315.92	-121.8
		2317.38	-95.6879	2317.38	-112.58
		2317.38	-112.58	2317.38	-112.58
				2317.38	-112.58
				2318.85	-114.504
				2318.85	-114.504
				2318.85	-114.504
		2320.31	-106.192	2320.31	-126.002
		2320.31	-126.002	2320.31	-126.002
				2320.31	-126.002
		2321.78	-108.74	2321.78	-120.07
		2321.78	-120.07	2321.78	-120.07
				2321.78	-120.07
		2323.24	-105.067	2323.24	-111.242
		2323.24	-111.242	2323.24	-111.242
				2323.24	-111.242
		2324.71	-106.583	2324.71	-138.041
		2324.71	-138.041	2324.71	-138.041
				2324.71	-138.041
		2326.17	-101.972	2326.17	-122.443
		2326.17	-122.443	2326.17	-122.443
				2326.17	-122.443
		2327.64	-100.699	2327.64	-126.167
		2327.64	-126.167	2327.64	-126.167
				2327.64	-126.167
		2329.1	-103.005	2329.1	-116.461
		2329.1	-116.461	2329.1	-116.461
				2329.1	-116.461
		2330.57	-102.061	2330.57	-117.671
		2330.57	-117.671	2330.57	-117.671
				2330.57	-117.671
		2332.03	-102.478	2332.03	-107.142
		2332.03	-107.142	2332.03	-107.142
				2332.03	-107.142
				2333.5	-106.37
				2333.5	-106.37
				2333.5	-106.37
		2334.96	-103.513	2334.96	-116.834
		2334.96	-116.834	2334.96	-116.834
				2334.96	-116.834
				2336.43	-105.321
				2336.43	-105.321
				2336.43	-105.321
		2337.89	-105.141	2337.89	-114.978
		2337.89	-114.978	2337.89	-114.978
				2337.89	-114.978
		2339.36	-102.27	2339.36	-107.24
		2339.36	-107.24	2339.36	-107.24
				2339.36	-107.24
		2340.82	-107.983	2340.82	-113.413
		2340.82	-113.413	2340.82	-113.413
				2340.82	-113.413
		2342.29	-107.334	2342.29	-112.242
		2342.29	-112.242	2342.29	-112.242
				2342.29	-112.242
		2343.75	-107.51	2343.75	-119.553
		2343.75	-119.553	2343.75	-119.553
				2343.75	-119.553
				2345.21	-112.884
				2345.21	-112.884
				2345.21	-112.884
		2346.68	-104.217	2346.68	-110.787
		2346.68	-110.787	2346.68	-110.787
				2346.68	-110.787
		2348.14	-101.97	2348.14	-109.293
		2348.14	-109.293	2348.14	-109.293
				2348.14	-109.293
		2349.61	-95.7967	2349.61	-118.65
		2349.61	-118.65	2349.61	-118.65
				2349.61	-118.65
				2351.07	-111.577
				2351.07	-111.577
				2351.07	-111.577
				2352.54	-106.848
				2352.54	-106.848
				2352.54	-106.848
		2354	-108.033	2354	-128.185
		2354	-128.185	2354	-128.185
				2354	-128.185
		2355.47	-101.188	2355.47	-115.607
		2355.47	-115.607	2355.47	-115.607
				2355.47	-115.607
		2356.93	-105.005	2356.93	-119.359
		2356.93	-119.359	2356.93	-119.359
				2356.93	-119.359
		2358.4	-102.659	2358.4	-112.491
		2358.4	-112.491	2358.4	-112.491
				2358.4	-112.491
		2359.86	-107.453	2359.86	-116.984
		2359.86	-116.984	2359.86	-116.984
				2359.86	-116.984
				2361.33	-112.183
				2361.33	-112.183
				2361.33	-112.183
		2362.79	-104.574	2362.79	-111.106
		2362.79	-111.106	2362.79	-111.106
				2362.79	-111.106
		2364.26	-103.791	2364.26	-109.487
		2364.26	-109.487	2364.26	-109.487
				2364.26	-109.487
		2365.72	-99.6261	2365.72	-117.11
		2365.72	-117.11	2365.72	-117.11
				2365.72	-117.11
		2367.19	-107.003	2367.19	-134.966
		2367.19	-134.966	2367.19	-134.966
				2367.19	-134.966
		2368.65	-109.127	2368.65	-118.67
		2368.65	-118.67	2368.65	-118.67
				2368.65	-118.67
		2370.12	-106.562	2370.12	-117.564
		2370.12	-117.564	2370.12	-117.564
				2370.12	-117.564
		2371.58	-109.713	2371.58	-113.026
		2371.58	-113.026	2371.58	-113.026
				2371.58	-113.026
		2373.05	-101.635	2373.05	-108.641
		2373.05	-108.641	2373.05	-108.641
				2373.05	-108.641
		2374.51	-99.6038	2374.51	-119.011
		2374.51	-119.011	2374.51	-119.011
				2374.51	-119.011
		2375.98	-105.889	2375.98	-111.658
		2375.98	-111.658	2375.98	-111.658
				2375.98	-111.658
		2377.44	-104.979	2377.44	-122.472
		2377.44	-122.472	2377.44	-122.472
				2377.44	-122.472
				2378.91	-104.605
				2378.91	-104.605
				2378.91	-104.605
		2380.37	-108.719	2380.37	-111.237
		2380.37	-111.237	2380.37	-111.237
				2380.37	-111.237
		2381.84	-106.618	2381.84	-111.876
		2381.84	-111.876	2381.84	-111.876
				2381.84	-111.876
		2383.3	-97.9262	2383.3	-110.563
		2383.3	-110.563	2383.3	-110.563
				2383.3	-110.563
				2384.77	-107.483
				2384.77	-107.483
				2384.77	-107.483
				2386.23	-107.529
				2386.23	-107.529
				2386.23	-107.529
				2387.7	-114.052
				2387.7	-114.052
				2387.7	-114.052
		2389.16	-111.592	2389.16	-116.439
		2389.16	-116.439	2389.16	-116.439
				2389.16	-116.439
		2390.63	-108.514	2390.63	-113.632
		2390.63	-113.632	2390.63	-113.632
				2390.63	-113.632
		2392.09	-101.75	2392.09	-118.986
		2392.09	-118.986	2392.09	-118.986
				2392.09	-118.986
		2393.55	-101.349	2393.55	-115.537
		2393.55	-115.537	2393.55	-115.537
				2393.55	-115.537
		2395.02	-100.612	2395.02	-110.311
		2395.02	-110.311	2395.02	-110.311
				2395.02	-110.311
				2396.48	-109.186
				2396.48	-109.186
				2396.48	-109.186
		2397.95	-98.8266	2397.95	-114.948
		2397.95	-114.948	2397.95	-114.948
				2397.95	-114.948
		2399.41	-101.468	2399.41	-111.918
		2399.41	-111.918	2399.41	-111.918
				2399.41	-111.918
		2400.88	-99.5809	2400.88	-141.145
		2400.88	-141.145	2400.88	-141.145
				2400.88	-141.145
		2402.34	-99.1294	2402.34	-112.51
		2402.34	-112.51	2402.34	-112.51
				2402.34	-112.51
		2403.81	-101.221	2403.81	-114.243
		2403.81	-114.243	2403.81	-114.243
				2403.81	-114.243
		2405.27	-104.445	2405.27	-118.991
		2405.27	-118.991	2405.27	-118.991
				2405.27	-118.991
		2406.74	-104.23	2406.74	-119.392
		2406.74	-119.392	2406.74	-119.392
				2406.74	-119.392
		2408.2	-107.175	2408.2	-115.261
		2408.2	-115.261	2408.2	-115.261
				2408.2	-115.261
		2409.67	-111.643	2409.67	-119.467
		2409.67	-119.467	2409.67	-119.467
				2409.67	-119.467
		2411.13	-100.034	2411.13	-110.363
		2411.13	-110.363	2411.13	-110.363
				2411.13	-110.363
		2412.6	-103.944	2412.6	-110.91
		2412.6	-110.91	2412.6	-110.91
				2412.6	-110.91
		2414.06	-107.293	2414.06	-120.713
		2414.06	-120.713	2414.06	-120.713
				2414.06	-120.713
		2415.53	-101.375	2415.53	-117.344
		2415.53	-117.344	2415.53	-117.344
				2415.53	-117.344
		2416.99	-97.9081	2416.99	-131.113
		2416.99	-131.113	2416.99	-131.113
				2416.99	-131.113
		2418.46	-102.326	2418.46	-112.963
		2418.46	-112.963	2418.46	-112.963
				2418.46	-112.963
		2419.92	-102.417	2419.92	-116.471
		2419.92	-116.471	2419.92	-116.471
				2419.92	-116.471
				2421.39	-107.266
				2421.39	-107.266
				2421.39	-107.266
		2422.85	-108.722	2422.85	-117.559
		2422.85	-117.559	2422.85	-117.559
				2422.85	-117.559
		2424.32	-102.51	2424.32	-114.675
		2424.32	-114.675	2424.32	-114.675
				2424.32	-114.675
		2425.78	-102.853	2425.78	-121.904
		2425.78	-121.904	2425.78	-121.904
				2425.78	-121.904
		2427.25	-104.238	2427.25	-112.439
		2427.25	-112.439	2427.25	-112.439
				2427.25	-112.439
		2428.71	-106.808	2428.71	-120.298
		2428.71	-120.298	2428.71	-120.298
				2428.71	-120.298
		2430.18	-97.6082	2430.18	-112.076
		2430.18	-112.076	2430.18	-112.076
				2430.18	-112.076
		2431.64	-103.038	2431.64	-111.057
		2431.64	-111.057	2431.64	-111.057
				2431.64	-111.057
		2433.11	-103.134	2433.11	-114.78
		2433.11	-114.78	2433.11	-114.78
				2433.11	-114.78
				2434.57	-116.662
				2434.57	-116.662
				2434.57	-116.662
				2436.04	-104.661
				2436.04	-104.661
				2436.04	-104.661
		2437.5	-100.477	2437.5	-108.341
		2437.5	-108.341	2437.5	-108.341
				2437.5	-108.341
		2438.96	-106.631	2438.96	-113.859
		2438.96	-113.859	2438.96	-113.859
				2438.96	-113.859
		2440.43	-105.958	2440.43	-109.555
		2440.43	-109.555	2440.43	-109.555
				2440.43	-109.555
		2441.89	-106.096	2441.89	-114.009
		2441.89	-114.009	2441.89	-114.009
				2441.89	-114.009
		2443.36	-97.6486	2443.36	-121.359
		2443.36	-121.359	2443.36	-121.359
				2443.36	-121.359
		2444.82	-103.364	2444.82	-118.443
		2444.82	-118.443	2444.82	-118.443
				2444.82	-118.443
				2446.29	-109.157
				2446.29	-109.157
				2446.29	-109.157
		2447.75	-102.939	2447.75	-109.195
		2447.75	-109.195	2447.75	-109.195
				2447.75	-109.195
		2449.22	-109.507	2449.22	-115.351
		2449.22	-115.351	2449.22	-115.351
				2449.22	-115.351
		2450.68	-103.436	2450.68	-116.24
		2450.68	-116.24	2450.68	-116.24
				2450.68	-116.24
		2452.15	-105.625	2452.15	-108.438
		2452.15	-108.438	2452.15	-108.438
				2452.15	-108.438
				2453.61	-107.43
				2453.61	-107.43
				2453.61	-107.43
		2455.08	-105.111	2455.08	-117.285
		2455.08	-117.285	2455.08	-117.285
				2455.08	-117.285
		2456.54	-100.597	2456.54	-107.872
		2456.54	-107.872	2456.54	-107.872
				2456.54	-107.872
		2458.01	-101.546	2458.01	-115.957
		2458.01	-115.957	2458.01	-115.957
				2458.01	-115.957
				2459.47	-107.174
				2459.47	-107.174
				2459.47	-107.174
		2460.94	-100.316	2460.94	-107.856
		2460.94	-107.856	2460.94	-107.856
				2460.94	-107.856
		2462.4	-100.166	2462.4	-107.677
		2462.4	-107.677	2462.4	-107.677
				2462.4	-107.677
				2463.87	-113.597
				2463.87	-113.597
				2463.87	-113.597
		2465.33	-104.004	2465.33	-111.935
		2465.33	-111.935	2465.33	-111.935
				2465.33	-111.935
		2466.8	-103.432	2466.8	-110.408
		2466.8	-110.408	2466.8	-110.408
				2466.8	-110.408
		2468.26	-96.6916	2468.26	-107.115
		2468.26	-107.115	2468.26	-107.115
				2468.26	-107.115
		2469.73	-106.837	2469.73	-111.841
		2469.73	-111.841	2469.73	-111.841
				2469.73	-111.841
		2471.19	-106.464	2471.19	-115.253
		2471.19	-115.253	2471.19	-115.253
				2471.19	-115.253
		2472.66	-106.984	2472.66	-117.986
		2472.66	-117.986	2472.66	-117.986
				2472.66	-117.986
				2474.12	-110.356
				2474.12	-110.356
				2474.12	-110.356
		2475.59	-102.593	2475.59	-109.075
		2475.59	-109.075	2475.59	-109.075
				2475.59	-109.075
		2477.05	-102.852	2477.05	-108.228
		2477.05	-108.228	2477.05	-108.228
				2477.05	-108.228
		2478.52	-109.512	2478.52	-122.762
		2478.52	-122.762	2478.52	-122.762
				2478.52	-122.762
		2479.98	-103.851	2479.98	-111.72
		2479.98	-111.72	2479.98	-111.72
				2479.98	-111.72
		2481.45	-104.77	2481.45	-115.425
		2481.45	-115.425	2481.45	-115.425
				2481.45	-115.425
		2482.91	-103.544	2482.91	-109.558
		2482.91	-109.558	2482.91	-109.558
				2482.91	-109.558
		2484.38	-103.904	2484.38	-113.079
		2484.38	-113.079	2484.38	-113.079
				2484.38	-113.079
		2485.84	-103.289	2485.84	-111.113
		2485.84	-111.113	2485.84	-111.113
				2485.84	-111.113
				2487.3	-115.833
				2487.3	-115.833
				2487.3	-115.833
		2488.77	-107.072	2488.77	-113.563
		2488.77	-113.563	2488.77	-113.563
				2488.77	-113.563
		2490.23	-100.822	2490.23	-106.935
		2490.23	-106.935	2490.23	-106.935
				2490.23	-106.935
		2491.7	-95.4285	2491.7	-110.976
		2491.7	-110.976	2491.7	-110.976
				2491.7	-110.976
				2493.16	-107.682
				2493.16	-107.682
				2493.16	-107.682
				2494.63	-113.314
				2494.63	-113.314
				2494.63	-113.314
		2496.09	-104.859	2496.09	-109.342
		2496.09	-109.342	2496.09	-109.342
				2496.09	-109.342
				2497.56	-108.413
				2497.56	-108.413
				2497.56	-108.413
		2499.02	-105.666	2499.02	-125.852
		2499.02	-125.852	2499.02	-125.852
				2499.02	-125.852
				2500.49	-111.78
				2500.49	-111.78
				2500.49	-111.78
		2501.95	-97.1851	2501.95	-104.448
		2501.95	-104.448	2501.95	-104.448
				2501.95	-104.448
		2503.42	-113.904	2503.42	-124.095
		2503.42	-124.095	2503.42	-124.095
				2503.42	-124.095
		2504.88	-106.251	2504.88	-121.252
		2504.88	-121.252	2504.88	-121.252
				2504.88	-121.252
		2506.35	-102.957	2506.35	-113.957
		2506.35	-113.957	2506.35	-113.957
				2506.35	-113.957
		2507.81	-110.571	2507.81	-112.018
		2507.81	-112.018	2507.81	-112.018
				2507.81	-112.018
		2509.28	-106.37	2509.28	-116.469
		2509.28	-116.469	2509.28	-116.469
				2509.28	-116.469
		2510.74	-99.4203	2510.74	-118.295
		2510.74	-118.295	2510.74	-118.295
				2510.74	-118.295
		2512.21	-111.483	2512.21	-118.626
		2512.21	-118.626	2512.21	-118.626
				2512.21	-118.626
		2513.67	-103.417	2513.67	-113.45
		2513.67	-113.45	2513.67	-113.45
				2513.67	-113.45
		2515.14	-99.0119	2515.14	-113.489
		2515.14	-113.489	2515.14	-113.489
				2515.14	-113.489
		2516.6	-99.4603	2516.6	-115.487
		2516.6	-115.487	2516.6	-115.487
				2516.6	-115.487
				2518.07	-111.894
				2518.07	-111.894
				2518.07	-111.894
		2519.53	-104.369	2519.53	-112.667
		2519.53	-112.667	2519.53	-112.667
				2519.53	-112.667
		2521	-104.145	2521	-116.154
		2521	-116.154	2521	-116.154
				2521	-116.154
		2522.46	-101.274	2522.46	-110.782
		2522.46	-110.782	2522.46	-110.782
				2522.46	-110.782
		2523.93	-104.835	2523.93	-115.957
		2523.93	-115.957	2523.93	-115.957
				2523.93	-115.957
		2525.39	-99.0257	2525.39	-117.536
		2525.39	-117.536	2525.39	-117.536
				2525.39	-117.536
		2526.86	-103.708	2526.86	-109.817
		2526.86	-109.817	2526.86	-109.817
				2526.86	-109.817
		2528.32	-103.258	2528.32	-111.415
		2528.32	-111.415	2528.32	-111.415
				2528.32	-111.415
				2529.79	-115.662
				2529.79	-115.662
				2529.79	-115.662
		2531.25	-102.469	2531.25	-112.179
		2531.25	-112.179	2531.25	-112.179
				2531.25	-112.179
				2532.71	-114.481
				2532.71	-114.481
				2532.71	-114.481
				2534.18	-113.977
				2534.18	-113.977
				2534.18	-113.977
		2535.64	-103.11	2535.64	-109.515
		2535.64	-109.515	2535.64	-109.515
				2535.64	-109.515
		2537.11	-107.275	2537.11	-112.261
		2537.11	-112.261	2537.11	-112.261
				2537.11	-112.261
		2538.57	-111.708	2538.57	-113.478
		2538.57	-113.478	2538.57	-113.478
				2538.57	-113.478
		2540.04	-100.411	2540.04	-112.545
		2540.04	-112.545	2540.04	-112.545
				2540.04	-112.545
		2541.5	-105.46	2541.5	-109.873
		2541.5	-109.873	2541.5	-109.873
				2541.5	-109.873
		2542.97	-98.9374	2542.97	-106.429
		2542.97	-106.429	2542.97	-106.429
				2542.97	-106.429
				2544.43	-111.465
				2544.43	-111.465
				2544.43	-111.465
				2545.9	-109.322
				2545.9	-109.322
				2545.9	-109.322
		2547.36	-105.739	2547.36	-113.597
		2547.36	-113.597	2547.36	-113.597
				2547.36	-113.597
		2548.83	-99.3896	2548.83	-110.476
		2548.83	-110.476	2548.83	-110.476
				2548.83	-110.476
		2550.29	-106.227	2550.29	-114.914
		2550.29	-114.914	2550.29	-114.914
				2550.29	-114.914
				2551.76	-108.792
				2551.76	-108.792
				2551.76	-108.792
		2553.22	-107.78	2553.22	-113.98
		2553.22	-113.98	2553.22	-113.98
				2553.22	-113.98
		2554.69	-101.68	2554.69	-110.123
		2554.69	-110.123	2554.69	-110.123
				2554.69	-110.123
		2556.15	-101.08	2556.15	-117.062
		2556.15	-117.062	2556.15	-117.062
				2556.15	-117.062
				2557.62	-106.663
				2557.62	-106.663
				2557.62	-106.663
		2559.08	-99.9449	2559.08	-109.115
		2559.08	-109.115	2559.08	-109.115
				2559.08	-109.115
		2560.55	-105.017	2560.55	-107.57
		2560.55	-107.57	2560.55	-107.57
				2560.55	-107.57
		2562.01	-107.754	2562.01	-114.294
		2562.01	-114.294	2562.01	-114.294
				2562.01	-114.294
		2563.48	-115.076	2563.48	-120.156
		2563.48	-120.156	2563.48	-120.156
				2563.48	-120.156
		2564.94	-100.475	2564.94	-116.559
		2564.94	-116.559	2564.94	-116.559
				2564.94	-116.559
		2566.41	-102.338	2566.41	-115.934
		2566.41	-115.934	2566.41	-115.934
				2566.41	-115.934
		2567.87	-100.438	2567.87	-107.915
		2567.87	-107.915	2567.87	-107.915
				2567.87	-107.915
		2569.34	-113.604	2569.34	-121.401
		2569.34	-121.401	2569.34	-121.401
				2569.34	-121.401
				2570.8	-107.961
				2570.8	-107.961
				2570.8	-107.961
		2572.27	-99.7382	2572.27	-110.412
		2572.27	-110.412	2572.27	-110.412
				2572.27	-110.412
		2573.73	-97.1715	2573.73	-106.951
		2573.73	-106.951	2573.73	-106.951
				2573.73	-106.951
		2575.2	-106.307	2575.2	-112.367
		2575.2	-112.367	2575.2	-112.367
				2575.2	-112.367
		2576.66	-106.483	2576.66	-118.198
		2576.66	-118.198	2576.66	-118.198
				2576.66	-118.198
				2578.13	-107.436
				2578.13	-107.436
				2578.13	-107.436
		2579.59	-103.044	2579.59	-134.685
		2579.59	-134.685	2579.59	-134.685
				2579.59	-134.685
		2581.05	-107.544	2581.05	-113.771
		2581.05	-113.771	2581.05	-113.771
				2581.05	-113.771
				2582.52	-112.892
				2582.52	-112.892
				2582.52	-112.892
				2583.98	-111.426
				2583.98	-111.426
				2583.98	-111.426
		2585.45	-101.267	2585.45	-106.435
		2585.45	-106.435	2585.45	-106.435
				2585.45	-106.435
				2586.91	-110.51
				2586.91	-110.51
				2586.91	-110.51
		2588.38	-101.801	2588.38	-111.493
		2588.38	-111.493	2588.38	-111.493
				2588.38	-111.493
		2589.84	-101.283	2589.84	-117.853
		2589.84	-117.853	2589.84	-117.853
				2589.84	-117.853
		2591.31	-98.7982	2591.31	-114.695
		2591.31	-114.695	2591.31	-114.695
				2591.31	-114.695
				2592.77	-109.292
				2592.77	-109.292
				2592.77	-109.292
		2594.24	-105.629	2594.24	-124.18
		2594.24	-124.18	2594.24	-124.18
				2594.24	-124.18
		2595.7	-109.088	2595.7	-120.294
		2595.7	-120.294	2595.7	-120.294
				2595.7	-120.294
				2597.17	-111.339
				2597.17	-111.339
				2597.17	-111.339
		2598.63	-101.021	2598.63	-109.29
		2598.63	-109.29	2598.63	-109.29
				2598.63	-109.29
		2600.1	-104.022	2600.1	-109.75
		2600.1	-109.75	2600.1	-109.75
				2600.1	-109.75
		2601.56	-102.326	2601.56	-108.226
		2601.56	-108.226	2601.56	-108.226
				2601.56	-108.226
		2603.03	-102.766	2603.03	-116.405
		2603.03	-116.405	2603.03	-116.405
				2603.03	-116.405
		2604.49	-99.2422	2604.49	-121.085
		2604.49	-121.085	2604.49	-121.085
				2604.49	-121.085
		2605.96	-102.144	2605.96	-123.171
		2605.96	-123.171	2605.96	-123.171
				2605.96	-123.171
				2607.42	-117.595
				2607.42	-117.595
				2607.42	-117.595
		2608.89	-97.9796	2608.89	-116.512
		2608.89	-116.512	2608.89	-116.512
				2608.89	-116.512
		2610.35	-116.55	2610.35	-125.398
		2610.35	-125.398	2610.35	-125.398
				2610.35	-125.398
				2611.82	-109.983
				2611.82	-109.983
				2611.82	-109.983
		2613.28	-109.243	2613.28	-116.191
		2613.28	-116.191	2613.28	-116.191
				2613.28	-116.191
		2614.75	-101.792	2614.75	-117.052
		2614.75	-117.052	2614.75	-117.052
				2614.75	-117.052
		2616.21	-102.916	2616.21	-112.462
		2616.21	-112.462	2616.21	-112.462
				2616.21	-112.462
		2617.68	-102.954	2617.68	-108.554
		2617.68	-108.554	2617.68	-108.554
				2617.68	-108.554
		2619.14	-104.6	2619.14	-113.136
		2619.14	-113.136	2619.14	-113.136
				2619.14	-113.136
		2620.61	-102.619	2620.61	-110.264
		2620.61	-110.264	2620.61	-110.264
				2620.61	-110.264
		2622.07	-100.992	2622.07	-114.883
		2622.07	-114.883	2622.07	-114.883
				2622.07	-114.883
		2623.54	-109.82	2623.54	-111.83
		2623.54	-111.83	2623.54	-111.83
				2623.54	-111.83
		2625	-101.405	2625	-111.986
		2625	-111.986	2625	-111.986
				2625	-111.986
		2626.46	-111.935	2626.46	-118.173
		2626.46	-118.173	2626.46	-118.173
				2626.46	-118.173
		2627.93	-104.573	2627.93	-107.041
		2627.93	-107.041	2627.93	-107.041
				2627.93	-107.041
		2629.39	-107.697	2629.39	-116.373
		2629.39	-116.373	2629.39	-116.373
				2629.39	-116.373
		2630.86	-108.104	2630.86	-111.343
		2630.86	-111.343	2630.86	-111.343
				2630.86	-111.343
		2632.32	-108.332	2632.32	-113.407
		2632.32	-113.407	2632.32	-113.407
				2632.32	-113.407
		2633.79	-104.427	2633.79	-122.405
		2633.79	-122.405	2633.79	-122.405
				2633.79	-122.405
				2635.25	-109.066
				2635.25	-109.066
				2635.25	-109.066
		2636.72	-97.7982	2636.72	-112.423
		2636.72	-112.423	2636.72	-112.423
				2636.72	-112.423
		2638.18	-106.106	2638.18	-108.885
		2638.18	-108.885	2638.18	-108.885
				2638.18	-108.885
		2639.65	-104.184	2639.65	-111.99
		2639.65	-111.99	2639.65	-111.99
				2639.65	-111.99
		2641.11	-103.811	2641.11	-106.611
		2641.11	-106.611	2641.11	-106.611
				2641.11	-106.611
				2642.58	-108.663
				2642.58	-108.663
				2642.58	-108.663
		2644.04	-107.006	2644.04	-109.078
		2644.04	-109.078	2644.04	-109.078
				2644.04	-109.078
		2645.51	-115.218	2645.51	-120.009
		2645.51	-120.009	2645.51	-120.009
				2645.51	-120.009
		2646.97	-95.4247	2646.97	-109.374
		2646.97	-109.374	2646.97	-109.374
				2646.97	-109.374
		2648.44	-102.712	2648.44	-129.7
		2648.44	-129.7	2648.44	-129.7
				2648.44	-129.7
		2649.9	-105.409	2649.9	-116.1
		2649.9	-116.1	2649.9	-116.1
				2649.9	-116.1
		2651.37	-106.47	2651.37	-129.758
		2651.37	-129.758	2651.37	-129.758
				2651.37	-129.758
		2652.83	-103.541	2652.83	-112.6
		2652.83	-112.6	2652.83	-112.6
				2652.83	-112.6
		2654.3	-102.236	2654.3	-109.24
		2654.3	-109.24	2654.3	-109.24
				2654.3	-109.24
				2655.76	-106.712
				2655.76	-106.712
				2655.76	-106.712
		2657.23	-103.125	2657.23	-108.212
		2657.23	-108.212	2657.23	-108.212
				2657.23	-108.212
		2658.69	-104.325	2658.69	-113.771
		2658.69	-113.771	2658.69	-113.771
				2658.69	-113.771
		2660.16	-116.705	2660.16	-121.203
		2660.16	-121.203	2660.16	-121.203
				2660.16	-121.203
		2661.62	-100.204	2661.62	-109.482
		2661.62	-109.482	2661.62	-109.482
				2661.62	-109.482
				2663.09	-110.048
				2663.09	-110.048
				2663.09	-110.048
		2664.55	-104.897	2664.55	-110.216
		2664.55	-110.216	2664.55	-110.216
				2664.55	-110.216
		2666.02	-106.368	2666.02	-109.105
		2666.02	-109.105	2666.02	-109.105
				2666.02	-109.105
				2667.48	-106.209
				2667.48	-106.209
				2667.48	-106.209
				2668.95	-105.72
				2668.95	-105.72
				2668.95	-105.72
				2670.41	-107.749
				2670.41	-107.749
				2670.41	-107.749
				2671.88	-108.056
				2671.88	-108.056
				2671.88	-108.056
		2673.34	-100.885	2673.34	-125.696
		2673.34	-125.696	2673.34	-125.696
				2673.34	-125.696
		2674.8	-100.155	2674.8	-117.084
		2674.8	-117.084	2674.8	-117.084
				2674.8	-117.084
		2676.27	-109.56	2676.27	-112.827
		2676.27	-112.827	2676.27	-112.827
				2676.27	-112.827
		2677.73	-101.074	2677.73	-114.818
		2677.73	-114.818	2677.73	-114.818
				2677.73	-114.818
		2679.2	-112.553	2679.2	-118.243
		2679.2	-118.243	2679.2	-118.243
				2679.2	-118.243
		2680.66	-108.152	2680.66	-112.904
		2680.66	-112.904	2680.66	-112.904
				2680.66	-112.904
		2682.13	-109.026	2682.13	-118.527
		2682.13	-118.527	2682.13	-118.527
				2682.13	-118.527
		2683.59	-100.138	2683.59	-108.23
		2683.59	-108.23	2683.59	-108.23
				2683.59	-108.23
		2685.06	-110.118	2685.06	-124.866
		2685.06	-124.866	2685.06	-124.866
				2685.06	-124.866
		2686.52	-109.24	2686.52	-113.163
		2686.52	-113.163	2686.52	-113.163
				2686.52	-113.163
		2687.99	-114.635	2687.99	-121.16
		2687.99	-121.16	2687.99	-121.16
				2687.99	-121.16
		2689.45	-104.557	2689.45	-119.28
		2689.45	-119.28	2689.45	-119.28
				2689.45	-119.28
		2690.92	-107.832	2690.92	-108.948
		2690.92	-108.948	2690.92	-108.948
				2690.92	-108.948
				2692.38	-107.766
				2692.38	-107.766
				2692.38	-107.766
		2693.85	-103.317	2693.85	-112.669
		2693.85	-112.669	2693.85	-112.669
				2693.85	-112.669
				2695.31	-107.509
				2695.31	-107.509
				2695.31	-107.509
		2696.78	-104.701	2696.78	-118.409
		2696.78	-118.409	2696.78	-118.409
				2696.78	-118.409
		2698.24	-100.979	2698.24	-108.153
		2698.24	-108.153	2698.24	-108.153
				2698.24	-108.153
		2699.71	-106.966	2699.71	-111.063
		2699.71	-111.063	2699.71	-111.063
				2699.71	-111.063
		2701.17	-99.7222	2701.17	-116.328
		2701.17	-116.328	2701.17	-116.328
				2701.17	-116.328
		2702.64	-104.497	2702.64	-115.535
		2702.64	-115.535	2702.64	-115.535
				2702.64	-115.535
		2704.1	-101.281	2704.1	-115.183
		2704.1	-115.183	2704.1	-115.183
				2704.1	-115.183
		2705.57	-105.165	2705.57	-113.111
		2705.57	-113.111	2705.57	-113.111
				2705.57	-113.111
				2707.03	-109.079
				2707.03	-109.079
				2707.03	-109.079
		2708.5	-102.167	2708.5	-105.083
		2708.5	-105.083	2708.5	-105.083
				2708.5	-105.083
		2709.96	-111.536	2709.96	-120.206
		2709.96	-120.206	2709.96	-120.206
				2709.96	-120.206
		2711.43	-107.164	2711.43	-121.307
		2711.43	-121.307	2711.43	-121.307
				2711.43	-121.307
				2712.89	-106.731
				2712.89	-106.731
				2712.89	-106.731
		2714.36	-97.862	2714.36	-109.317
		2714.36	-109.317	2714.36	-109.317
				2714.36	-109.317
		2715.82	-101.543	2715.82	-110.182
		2715.82	-110.182	2715.82	-110.182
				2715.82	-110.182
				2717.29	-108.889
				2717.29	-108.889
				2717.29	-108.889
		2718.75	-105.532	2718.75	-114.344
		2718.75	-114.344	2718.75	-114.344
				2718.75	-114.344
				2720.21	-104.655
				2720.21	-104.655
				2720.21	-104.655
		2721.68	-103.148	2721.68	-110.341
		2721.68	-110.341	2721.68	-110.341
				2721.68	-110.341
		2723.14	-104.066	2723.14	-114.302
		2723.14	-114.302	2723.14	-114.302
				2723.14	-114.302
		2724.61	-107.601	2724.61	-111.866
		2724.61	-111.866	2724.61	-111.866
				2724.61	-111.866
		2726.07	-106.581	2726.07	-107.965
		2726.07	-107.965	2726.07	-107.965
				2726.07	-107.965
				2727.54	-117.959
				2727.54	-117.959
				2727.54	-117.959
				2729	-108.643
				2729	-108.643
				2729	-108.643
		2730.47	-110.707	2730.47	-115.004
		2730.47	-115.004	2730.47	-115.004
				2730.47	-115.004
				2731.93	-106.071
				2731.93	-106.071
				2731.93	-106.071
		2733.4	-104.841	2733.4	-115.635
		2733.4	-115.635	2733.4	-115.635
				2733.4	-115.635
		2734.86	-103.261	2734.86	-109.585
		2734.86	-109.585	2734.86	-109.585
				2734.86	-109.585
		2736.33	-105.48	2736.33	-111.573
		2736.33	-111.573	2736.33	-111.573
				2736.33	-111.573
		2737.79	-102.795	2737.79	-104.611
		2737.79	-104.611	2737.79	-104.611
				2737.79	-104.611
		2739.26	-103.757	2739.26	-119.906
		2739.26	-119.906	2739.26	-119.906
				2739.26	-119.906
		2740.72	-99.5323	2740.72	-113.873
		2740.72	-113.873	2740.72	-113.873
				2740.72	-113.873
				2742.19	-106.598
				2742.19	-106.598
				2742.19	-106.598
		2743.65	-110.379	2743.65	-117.624
		2743.65	-117.624	2743.65	-117.624
				2743.65	-117.624
		2745.12	-103.944	2745.12	-107.726
		2745.12	-107.726	2745.12	-107.726
				2745.12	-107.726
		2746.58	-104.532	2746.58	-115.136
		2746.58	-115.136	2746.58	-115.136
				2746.58	-115.136
		2748.05	-102.757	2748.05	-106.252
		2748.05	-106.252	2748.05	-106.252
				2748.05	-106.252
		2749.51	-109.607	2749.51	-113.853
		2749.51	-113.853	2749.51	-113.853
				2749.51	-113.853
		2750.98	-103.751	2750.98	-109.336
		2750.98	-109.336	2750.98	-109.336
				2750.98	-109.336
		2752.44	-106.37	2752.44	-111.305
		2752.44	-111.305	2752.44	-111.305
				2752.44	-111.305
		2753.91	-103.702	2753.91	-110.96
		2753.91	-110.96	2753.91	-110.96
				2753.91	-110.96
		2755.37	-100.383	2755.37	-109.357
		2755.37	-109.357	2755.37	-109.357
				2755.37	-109.357
				2756.84	-107.269
				2756.84	-107.269
				2756.84	-107.269
		2758.3	-105.422	2758.3	-114.772
		2758.3	-114.772	2758.3	-114.772
				2758.3	-114.772
		2759.77	-101.655	2759.77	-120.751
		2759.77	-120.751	2759.77	-120.751
				2759.77	-120.751
		2761.23	-100.335	2761.23	-112.561
		2761.23	-112.561	2761.23	-112.561
				2761.23	-112.561
		2762.7	-100.711	2762.7	-110.891
		2762.7	-110.891	2762.7	-110.891
				2762.7	-110.891
				2764.16	-107.624
				2764.16	-107.624
				2764.16	-107.624
		2765.63	-97.3668	2765.63	-114.446
		2765.63	-114.446	2765.63	-114.446
				2765.63	-114.446
				2767.09	-106.841
				2767.09	-106.841
				2767.09	-106.841
		2768.55	-110.42	2768.55	-112.589
		2768.55	-112.589	2768.55	-112.589
				2768.55	-112.589
		2770.02	-96.2752	2770.02	-104.317
		2770.02	-104.317	2770.02	-104.317
				2770.02	-104.317
		2771.48	-97.2106	2771.48	-116.708
		2771.48	-116.708	2771.48	-116.708
				2771.48	-116.708
		2772.95	-108.31	2772.95	-113.043
		2772.95	-113.043	2772.95	-113.043
				2772.95	-113.043
		2774.41	-101.142	2774.41	-113.673
		2774.41	-113.673	2774.41	-113.673
				2774.41	-113.673
		2775.88	-106.179	2775.88	-124.083
		2775.88	-124.083	2775.88	-124.083
				2775.88	-124.083
		2777.34	-105.614	2777.34	-122.953
		2777.34	-122.953	2777.34	-122.953
				2777.34	-122.953
		2778.81	-102.555	2778.81	-113.058
		2778.81	-113.058	2778.81	-113.058
				2778.81	-113.058
		2780.27	-104.036	2780.27	-110.6
		2780.27	-110.6	2780.27	-110.6
				2780.27	-110.6
		2781.74	-101.613	2781.74	-121.934
		2781.74	-121.934	2781.74	-121.934
				2781.74	-121.934
				2783.2	-105.056
				2783.2	-105.056
				2783.2	-105.056
		2784.67	-100.689	2784.67	-110.355
		2784.67	-110.355	2784.67	-110.355
				2784.67	-110.355
				2786.13	-107.361
				2786.13	-107.361
				2786.13	-107.361
				2787.6	-113.177
				2787.6	-113.177
				2787.6	-113.177
		2789.06	-104.824	2789.06	-109.179
		2789.06	-109.179	2789.06	-109.179
				2789.06	-109.179
				2790.53	-106.892
				2790.53	-106.892
				2790.53	-106.892
		2791.99	-107.526	2791.99	-108.645
		2791.99	-108.645	2791.99	-108.645
				2791.99	-108.645
		2793.46	-100.306	2793.46	-123.882
		2793.46	-123.882	2793.46	-123.882
				2793.46	-123.882
				2794.92	-105.364
				2794.92	-105.364
				2794.92	-105.364
				2796.39	-106.677
				2796.39	-106.677
				2796.39	-106.677
		2797.85	-99.7096	2797.85	-110.38
		2797.85	-110.38	2797.85	-110.38
				2797.85	-110.38
				2799.32	-109.568
				2799.32	-109.568
				2799.32	-109.568
		2800.78	-103.052	2800.78	-121.497
		2800.78	-121.497	2800.78	-121.497
				2800.78	-121.497
		2802.25	-108.062	2802.25	-115.631
		2802.25	-115.631	2802.25	-115.631
				2802.25	-115.631
				2803.71	-111.763
				2803.71	-111.763
				2803.71	-111.763
		2805.18	-101.023	2805.18	-105.073
		2805.18	-105.073	2805.18	-105.073
				2805.18	-105.073
				2806.64	-108.551
				2806.64	-108.551
				2806.64	-108.551
		2808.11	-103.044	2808.11	-109.538
		2808.11	-109.538	2808.11	-109.538
				2808.11	-109.538
		2809.57	-106.438	2809.57	-117.614
		2809.57	-117.614	2809.57	-117.614
				2809.57	-117.614
				2811.04	-107.656
				2811.04	-107.656
				2811.04	-107.656
				2812.5	-110.006
				2812.5	-110.006
				2812.5	-110.006
		2813.96	-99.708	2813.96	-105.254
		2813.96	-105.254	2813.96	-105.254
				2813.96	-105.254
		2815.43	-108.815	2815.43	-125.043
		2815.43	-125.043	2815.43	-125.043
				2815.43	-125.043
		2816.89	-109.225	2816.89	-116.491
		2816.89	-116.491	2816.89	-116.491
				2816.89	-116.491
		2818.36	-104.049	2818.36	-110.614
		2818.36	-110.614	2818.36	-110.614
				2818.36	-110.614
		2819.82	-104.671	2819.82	-116.743
		2819.82	-116.743	2819.82	-116.743
				2819.82	-116.743
		2821.29	-105.39	2821.29	-112.214
		2821.29	-112.214	2821.29	-112.214
				2821.29	-112.214
		2822.75	-97.62	2822.75	-107.89
		2822.75	-107.89	2822.75	-107.89
				2822.75	-107.89
		2824.22	-102.971	2824.22	-109.425
		2824.22	-109.425	2824.22	-109.425
				2824.22	-109.425
		2825.68	-98.4469	2825.68	-110.874
		2825.68	-110.874	2825.68	-110.874
				2825.68	-110.874
		2827.15	-108.926	2827.15	-111.346
		2827.15	-111.346	2827.15	-111.346
				2827.15	-111.346
				2828.61	-105.647
				2828.61	-105.647
				2828.61	-105.647
		2830.08	-107.357	2830.08	-116.499
		2830.08	-116.499	2830.08	-116.499
				2830.08	-116.499
		2831.54	-104.926	2831.54	-126.58
		2831.54	-126.58	2831.54	-126.58
				2831.54	-126.58
		2833.01	-102.385	2833.01	-112.588
		2833.01	-112.588	2833.01	-112.588
				2833.01	-112.588
		2834.47	-105.401	2834.47	-110.812
		2834.47	-110.812	2834.47	-110.812
				2834.47	-110.812
		2835.94	-104.376	2835.94	-109.109
		2835.94	-109.109	2835.94	-109.109
				2835.94	-109.109
				2837.4	-107.717
				2837.4	-107.717
				2837.4	-107.717
		2838.87	-101.376	2838.87	-115.294
		2838.87	-115.294	2838.87	-115.294
				2838.87	-115.294
		2840.33	-103.525	2840.33	-108.424
		2840.33	-108.424	2840.33	-108.424
				2840.33	-108.424
		2841.8	-103.591	2841.8	-107.481
		2841.8	-107.481	2841.8	-107.481
				2841.8	-107.481
		2843.26	-102.733	2843.26	-120.009
		2843.26	-120.009	2843.26	-120.009
				2843.26	-120.009
				2844.73	-101.762
				2844.73	-101.762
				2844.73	-101.762
				2846.19	-109.228
				2846.19	-109.228
				2846.19	-109.228
		2847.66	-106.703	2847.66	-135.576
		2847.66	-135.576	2847.66	-135.576
				2847.66	-135.576
		2849.12	-102.052	2849.12	-107.802
		2849.12	-107.802	2849.12	-107.802
				2849.12	-107.802
		2850.59	-105.657	2850.59	-112.523
		2850.59	-112.523	2850.59	-112.523
				2850.59	-112.523
		2852.05	-107.893	2852.05	-112.919
		2852.05	-112.919	2852.05	-112.919
				2852.05	-112.919
				2853.52	-106.033
				2853.52	-106.033
				2853.52	-106.033
		2854.98	-97.177	2854.98	-122.106
		2854.98	-122.106	2854.98	-122.106
				2854.98	-122.106
		2856.45	-107.374	2856.45	-109.413
		2856.45	-109.413	2856.45	-109.413
				2856.45	-109.413
		2857.91	-101.089	2857.91	-107.609
		2857.91	-107.609	2857.91	-107.609
				2857.91	-107.609
		2859.38	-100.99	2859.38	-114.216
		2859.38	-114.216	2859.38	-114.216
				2859.38	-114.216
				2860.84	-108.007
				2860.84	-108.007
				2860.84	-108.007
		2862.3	-106.811	2862.3	-118.131
		2862.3	-118.131	2862.3	-118.131
				2862.3	-118.131
		2863.77	-102.161	2863.77	-106.009
		2863.77	-106.009	2863.77	-106.009
				2863.77	-106.009
		2865.23	-102.582	2865.23	-104.404
		2865.23	-104.404	2865.23	-104.404
				2865.23	-104.404
				2866.7	-106.144
				2866.7	-106.144
				2866.7	-106.144
				2868.16	-105.129
				2868.16	-105.129
				2868.16	-105.129
				2869.63	-105.173
				2869.63	-105.173
				2869.63	-105.173
				2871.09	-106.612
				2871.09	-106.612
				2871.09	-106.612
		2872.56	-108.199	2872.56	-120.668
		2872.56	-120.668	2872.56	-120.668
				2872.56	-120.668
		2874.02	-106.539	2874.02	-108.015
		2874.02	-108.015	2874.02	-108.015
				2874.02	-108.015
				2875.49	-108.205
				2875.49	-108.205
				2875.49	-108.205
		2876.95	-109.544	2876.95	-111.748
		2876.95	-111.748	2876.95	-111.748
				2876.95	-111.748
		2878.42	-102.825	2878.42	-105.306
		2878.42	-105.306	2878.42	-105.306
				2878.42	-105.306
		2879.88	-98.9338	2879.88	-115.582
		2879.88	-115.582	2879.88	-115.582
				2879.88	-115.582
		2881.35	-104.15	2881.35	-112.668
		2881.35	-112.668	2881.35	-112.668
				2881.35	-112.668
		2882.81	-103.23	2882.81	-109.524
		2882.81	-109.524	2882.81	-109.524
				2882.81	-109.524
				2884.28	-106.433
				2884.28	-106.433
				2884.28	-106.433
		2885.74	-110.784	2885.74	-115.785
		2885.74	-115.785	2885.74	-115.785
				2885.74	-115.785
		2887.21	-105.121	2887.21	-108.645
		2887.21	-108.645	2887.21	-108.645
				2887.21	-108.645
		2888.67	-102.648	2888.67	-104.852
		2888.67	-104.852	2888.67	-104.852
				2888.67	-104.852
		2890.14	-104.69	2890.14	-107.196
		2890.14	-107.196	2890.14	-107.196
				2890.14	-107.196
		2891.6	-102.955	2891.6	-107.064
		2891.6	-107.064	2891.6	-107.064
				2891.6	-107.064
		2893.07	-102.658	2893.07	-107.429
		2893.07	-107.429	2893.07	-107.429
				2893.07	-107.429
		2894.53	-100.963	2894.53	-117.227
		2894.53	-117.227	2894.53	-117.227
				2894.53	-117.227
				2896	-109.105
				2896	-109.105
				2896	-109.105
		2897.46	-105.271	2897.46	-106.933
		2897.46	-106.933	2897.46	-106.933
				2897.46	-106.933
				2898.93	-113.981
				2898.93	-113.981
				2898.93	-113.981
				2900.39	-107.662
				2900.39	-107.662
				2900.39	-107.662
		2901.86	-106.574	2901.86	-108.008
		2901.86	-108.008	2901.86	-108.008
				2901.86	-108.008
		2903.32	-101.854	2903.32	-114.81
		2903.32	-114.81	2903.32	-114.81
				2903.32	-114.81
				2904.79	-111.028
				2904.79	-111.028
				2904.79	-111.028
				2906.25	-108.584
				2906.25	-108.584
				2906.25	-108.584
		2907.71	-99.3973	2907.71	-115.805
		2907.71	-115.805	2907.71	-115.805
				2907.71	-115.805
		2909.18	-107.853	2909.18	-114.787
		2909.18	-114.787	2909.18	-114.787
				2909.18	-114.787
		2910.64	-112.896	2910.64	-120.169
		2910.64	-120.169	2910.64	-120.169
				2910.64	-120.169
		2912.11	-101.242	2912.11	-112.79
		2912.11	-112.79	2912.11	-112.79
				2912.11	-112.79
				2913.57	-102.229
				2913.57	-102.229
				2913.57	-102.229
				2915.04	-103.536
				2915.04	-103.536
				2915.04	-103.536
		2916.5	-108.764	2916.5	-116.259
		2916.5	-116.259	2916.5	-116.259
				2916.5	-116.259
		2917.97	-108.34	2917.97	-110.402
		2917.97	-110.402	2917.97	-110.402
				2917.97	-110.402
				2919.43	-122.21
				2919.43	-122.21
				2919.43	-122.21
		2920.9	-101.904	2920.9	-119.615
		2920.9	-119.615	2920.9	-119.615
				2920.9	-119.615
		2922.36	-105.887	2922.36	-114.701
		2922.36	-114.701	2922.36	-114.701
				2922.36	-114.701
				2923.83	-104.609
				2923.83	-104.609
				2923.83	-104.609
		2925.29	-104.334	2925.29	-115.532
		2925.29	-115.532	2925.29	-115.532
				2925.29	-115.532
				2926.76	-107.014
				2926.76	-107.014
				2926.76	-107.014
		2928.22	-106.207	2928.22	-110.844
		2928.22	-110.844	2928.22	-110.844
				2928.22	-110.844
		2929.69	-99.8435	2929.69	-125.162
		2929.69	-125.162	2929.69	-125.162
				2929.69	-125.162
		2931.15	-104.986	2931.15	-119.866
		2931.15	-119.866	2931.15	-119.866
				2931.15	-119.866
		2932.62	-102.675	2932.62	-107.351
		2932.62	-107.351	2932.62	-107.351
				2932.62	-107.351
		2934.08	-99.0324	2934.08	-106
		2934.08	-106	2934.08	-106
				2934.08	-106
				2935.55	-106.942
				2935.55	-106.942
				2935.55	-106.942
		2937.01	-111.706	2937.01	-113.745
		2937.01	-113.745	2937.01	-113.745
				2937.01	-113.745
		2938.48	-104.041	2938.48	-111.998
		2938.48	-111.998	2938.48	-111.998
				2938.48	-111.998
		2939.94	-105.239	2939.94	-107.631
		2939.94	-107.631	2939.94	-107.631
				2939.94	-107.631
				2941.41	-101.248
				2941.41	-101.248
				2941.41	-101.248
				2942.87	-106.673
				2942.87	-106.673
				2942.87	-106.673
		2944.34	-105.327	2944.34	-109.887
		2944.34	-109.887	2944.34	-109.887
				2944.34	-109.887
		2945.8	-101.558	2945.8	-105.34
		2945.8	-105.34	2945.8	-105.34
				2945.8	-105.34
		2947.27	-104.36	2947.27	-117.898
		2947.27	-117.898	2947.27	-117.898
				2947.27	-117.898
				2948.73	-106.176
				2948.73	-106.176
				2948.73	-106.176
				2950.2	-105.145
				2950.2	-105.145
				2950.2	-105.145
		2951.66	-102.178	2951.66	-120.048
		2951.66	-120.048	2951.66	-120.048
				2951.66	-120.048
		2953.13	-106.508	2953.13	-121.797
		2953.13	-121.797	2953.13	-121.797
				2953.13	-121.797
		2954.59	-103.537	2954.59	-108.377
		2954.59	-108.377	2954.59	-108.377
				2954.59	-108.377
				2956.05	-110.912
				2956.05	-110.912
				2956.05	-110.912
				2957.52	-109.691
				2957.52	-109.691
				2957.52	-109.691
				2958.98	-104.753
				2958.98	-104.753
				2958.98	-104.753
				2960.45	-109.083
				2960.45	-109.083
				2960.45	-109.083
		2961.91	-106.984	2961.91	-113.786
		2961.91	-113.786	2961.91	-113.786
				2961.91	-113.786
		2963.38	-97.3172	2963.38	-109.623
		2963.38	-109.623	2963.38	-109.623
				2963.38	-109.623
		2964.84	-103.107	2964.84	-116.724
		2964.84	-116.724	2964.84	-116.724
				2964.84	-116.724
				2966.31	-110.059
				2966.31	-110.059
				2966.31	-110.059
		2967.77	-104.776	2967.77	-109.357
		2967.77	-109.357	2967.77	-109.357
				2967.77	-109.357
		2969.24	-102.051	2969.24	-105.017
		2969.24	-105.017	2969.24	-105.017
				2969.24	-105.017
		2970.7	-105.19	2970.7	-112.984
		2970.7	-112.984	2970.7	-112.984
				2970.7	-112.984
		2972.17	-97.7211	2972.17	-105.398
		2972.17	-105.398	2972.17	-105.398
				2972.17	-105.398
		2973.63	-105.496	2973.63	-122.915
		2973.63	-122.915	2973.63	-122.915
				2973.63	-122.915
				2975.1	-110.824
				2975.1	-110.824
				2975.1	-110.824
				2976.56	-105.502
				2976.56	-105.502
				2976.56	-105.502
				2978.03	-104.705
				2978.03	-104.705
				2978.03	-104.705
				2979.49	-112.501
				2979.49	-112.501
				2979.49	-112.501
		2980.96	-107.562	2980.96	-121.276
		2980.96	-121.276	2980.96	-121.276
				2980.96	-121.276
		2982.42	-105.035	2982.42	-113.001
		2982.42	-113.001	2982.42	-113.001
				2982.42	-113.001
		2983.89	-108.564	2983.89	-128.208
		2983.89	-128.208	2983.89	-128.208
				2983.89	-128.208
				2985.35	-105.268
				2985.35	-105.268
				2985.35	-105.268
		2986.82	-111.118	2986.82	-117.519
		2986.82	-117.519	2986.82	-117.519
				2986.82	-117.519
		2988.28	-106.192	2988.28	-116.591
		2988.28	-116.591	2988.28	-116.591
				2988.28	-116.591
		2989.75	-105.377	2989.75	-115.084
		2989.75	-115.084	2989.75	-115.084
				2989.75	-115.084
		2991.21	-104.842	2991.21	-116.193
		2991.21	-116.193	2991.21	-116.193
				2991.21	-116.193
				2992.68	-106.741
				2992.68	-106.741
				2992.68	-106.741
				2994.14	-113.862
				2994.14	-113.862
				2994.14	-113.862
		2995.61	-98.9234	2995.61	-106.134
		2995.61	-106.134	2995.61	-106.134
				2995.61	-106.134
				2997.07	-107.648
				2997.07	-107.648
				2997.07	-107.648
				2998.54	-104.865
				2998.54	-104.865
				2998.54	-104.865
