"Magnitude of electric impedance Z(f)"			
"Measured"		"Fitted"	
"Frequency [Hz]"	"[Ohm]"	"Frequency [Hz]"	"[Ohm]"
1.46484	5.69133	1.46484	5.71621
2.92969	5.80199	2.92969	5.76535
4.39453	5.92875	4.39453	5.84585
5.85938	6.08009	5.85938	5.95766
7.32422	6.24671	7.32422	6.10111
8.78906	6.52774	8.78906	6.2769
10.2539	6.71993	10.2539	6.48612
11.7188	7.05523	11.7188	6.73025
13.1836	7.31035	13.1836	7.01127
14.6484	7.65764	14.6484	7.33167
16.1133	8.05511	16.1133	7.69459
17.5781	8.5305	17.5781	8.10388
19.043	8.86082	19.043	8.56426
20.5078	9.40213	20.5078	9.08145
21.9727	10.1111	21.9727	9.66237
23.4375	10.9325	23.4375	10.3153
24.9023	11.2997	24.9023	11.0503
26.3672	12.2867	26.3672	11.8793
27.832	13.1354	27.832	12.8163
29.2969	14.0436	29.2969	13.8779
30.7617	15.2298	30.7617	15.0831
32.2266	16.2758	32.2266	16.453
33.6914	18.2838	33.6914	18.0094
35.1563	19.3721	35.1563	19.7721
36.6211	21.1312	36.6211	21.7523
38.0859	23.8614	38.0859	23.9419
39.5508	26.6427	39.5508	26.2949
41.0156	28.2914	41.0156	28.7028
42.4805	29.2723	42.4805	30.9735
43.9453	32.5486	43.9453	32.837
45.4102	34.0809	45.4102	34.0085
46.875	35.0748	46.875	34.3023
48.3398	34.4227	48.3398	33.724
49.8047	31.5469	49.8047	32.459
51.2695	31.0701	51.2695	30.7725
52.7344	29.2492	52.7344	28.9074
54.1992	26.6817	54.1992	27.0361
55.6641	25.4899	55.6641	25.2589
57.1289	23.8847	57.1289	23.6234
58.5938	22.5472	58.5938	22.1447
60.0586	20.8493	60.0586	20.82
61.5234	19.3055	61.5234	19.638
64.4531	17.6208	64.4531	17.6439
65.918	16.5773	65.918	16.8029
67.3828	15.9722	67.3828	16.0487
70.3125	14.5093	70.3125	14.7575
71.7773	13.9297	71.7773	14.2026
73.2422	13.5605	73.2422	13.6984
76.1719	12.5636	76.1719	12.8186
77.6367	12.0715	77.6367	12.4332
80.5664	11.835	80.5664	11.7521
83.4961	11.0733	83.4961	11.1702
84.9609	10.7621	84.9609	10.9104
87.8906	10.3008	87.8906	10.4433
90.8203	9.75153	90.8203	10.0358
92.2852	9.62749	92.2852	9.85115
95.2148	9.29378	95.2148	9.5149
98.1445	9.12858	98.1445	9.21688
101.074	8.78485	101.074	8.95136
104.004	8.57373	104.004	8.71367
106.934	8.34986	106.934	8.49998
111.328	8.05694	111.328	8.21769
114.258	7.90478	114.258	8.05127
117.188	7.73241	117.188	7.89985
120.117	7.64058	120.117	7.76169
124.512	7.45106	124.512	7.57613
127.441	7.38224	127.441	7.46509
131.836	7.24239	131.836	7.31496
134.766	7.13859	134.766	7.22457
139.16	7.00911	139.16	7.10173
143.555	6.91179	143.555	6.99233
147.949	6.83402	147.949	6.89464
152.344	6.74452	152.344	6.80719
156.738	6.66398	156.738	6.72877
161.133	6.61906	161.133	6.65833
165.527	6.54939	165.527	6.59497
169.922	6.50821	169.922	6.53793
175.781	6.44081	175.781	6.4706
180.176	6.41521	180.176	6.4259
186.035	6.35464	186.035	6.37313
191.895	6.32022	191.895	6.32729
197.754	6.31632	197.754	6.28756
202.148	6.26329	202.148	6.26135
209.473	6.24014	209.473	6.22374
215.332	6.21618	215.332	6.19854
221.191	6.2167	221.191	6.1772
227.051	6.19638	227.051	6.15933
234.375	6.18131	234.375	6.14136
241.699	6.18335	241.699	6.12774
249.023	6.17778	249.023	6.11797
254.883	6.18237	254.883	6.11264
263.672	6.20648	263.672	6.10837
270.996	6.23501	270.996	6.10788
278.32	6.24312	278.32	6.10987
287.109	6.19705	287.109	6.11521
295.898	6.1702	295.898	6.12343
303.223	6.19372	303.223	6.13225
313.477	6.17643	313.477	6.14728
322.266	6.19644	322.266	6.16241
331.055	6.20748	331.055	6.17937
341.309	6.22954	341.309	6.20124
351.563	6.25699	351.563	6.2251
361.816	6.26231	361.816	6.25072
372.07	6.29244	372.07	6.2779
382.324	6.30094	382.324	6.30646
394.043	6.33935	394.043	6.3406
405.762	6.38166	405.762	6.37611
417.48	6.39264	417.48	6.41283
429.199	6.40996	429.199	6.45058
442.383	6.44142	442.383	6.4941
455.566	6.46456	455.566	6.53856
468.75	6.50787	468.75	6.58379
481.934	6.5414	481.934	6.62965
496.582	6.58164	496.582	6.68118
511.23	6.62669	511.23	6.73316
525.879	6.64237	525.879	6.78547
541.992	6.70198	541.992	6.84322
558.105	6.75754	558.105	6.90106
574.219	6.80601	574.219	6.95887
590.332	6.84498	590.332	7.01655
607.91	6.90656	607.91	7.07919
625.488	6.95181	625.488	7.14146
644.531	6.99043	644.531	7.20837
663.574	7.06784	663.574	7.27464
682.617	7.1476	682.617	7.34019
701.66	7.2195	701.66	7.40494
723.633	7.2873	723.633	7.4786
744.141	7.35675	744.141	7.54629
766.113	7.41752	766.113	7.61763
788.086	7.49882	788.086	7.68771
811.523	7.60376	811.523	7.76106
834.961	7.65707	834.961	7.83295
859.863	7.76668	859.863	7.90774
884.766	7.8523	884.766	7.98089
911.133	7.94341	911.133	8.05659
937.5	8.08206	937.5	8.13052
965.332	8.20997	965.332	8.20668
993.164	8.36177	993.164	8.28099
1022.46	8.52155	1022.46	8.35726
1051.76	8.6941	1051.76	8.43162
1082.52	8.81338	1082.52	8.50774
1114.75	8.8626	1114.75	8.58542
1146.97	8.85248	1146.97	8.66111
1180.66	8.77413	1180.66	8.73824
1215.82	8.76252	1215.82	8.81666
1250.98	8.77884	1250.98	8.89314
1287.6	8.84898	1287.6	8.97086
1325.68	8.85006	1325.68	9.04975
1365.23	8.97921	1365.23	9.12976
1404.79	9.06872	1404.79	9.20796
1445.8	9.13585	1445.8	9.28734
1488.28	9.27529	1488.28	9.36787
1532.23	9.38083	1532.23	9.44955
1576.17	9.48534	1576.17	9.52976
1623.05	9.6434	1623.05	9.61387
1669.92	9.71106	1669.92	9.69666
1719.73	9.88352	1719.73	9.78337
1769.53	9.99339	1769.53	9.86895
1822.27	10.1238	1822.27	9.95854
1875	10.2456	1875	10.0472
1930.66	10.4003	1930.66	10.14
1986.33	10.5416	1986.33	10.2322
2044.92	10.6375	2044.92	10.3286
