"Spectrum I(f) of current at speaker terminals"					
"Signal lines"		"Noise + Distortions"		"Noise floor"	
"Frequency [Hz]"	"[dB]   0 dB = 1 A"	"Frequency [Hz]"	"[dB]   0 dB = 1 A"	"Frequency [Hz]"	"[dB]   0 dB = 1 A"
1.46484	-54.1651			1.46484	-99.8518
1.46484	-99.8518			1.46484	-99.8518
				1.46484	-99.8518
2.92969	-54.4457			2.92969	-110.726
2.92969	-110.726			2.92969	-110.726
				2.92969	-110.726
4.39453	-56.8255			4.39453	-104.938
4.39453	-104.938			4.39453	-104.938
				4.39453	-104.938
5.85938	-56.2519			5.85938	-107.697
5.85938	-107.697			5.85938	-107.697
				5.85938	-107.697
7.32422	-56.0344			7.32422	-102.121
7.32422	-102.121			7.32422	-102.121
				7.32422	-102.121
8.78906	-56.117			8.78906	-101.13
8.78906	-101.13			8.78906	-101.13
				8.78906	-101.13
10.2539	-56.2138			10.2539	-101.149
10.2539	-101.149			10.2539	-101.149
				10.2539	-101.149
11.7188	-56.4819			11.7188	-104.842
11.7188	-104.842			11.7188	-104.842
				11.7188	-104.842
13.1836	-56.6768			13.1836	-121.624
13.1836	-121.624			13.1836	-121.624
				13.1836	-121.624
14.6484	-57.0313			14.6484	-103.911
14.6484	-103.911			14.6484	-103.911
				14.6484	-103.911
16.1133	-57.3678			16.1133	-104.79
16.1133	-104.79			16.1133	-104.79
				16.1133	-104.79
17.5781	-57.781			17.5781	-109.433
17.5781	-109.433			17.5781	-109.433
				17.5781	-109.433
19.043	-58.037			19.043	-113.111
19.043	-113.111			19.043	-113.111
				19.043	-113.111
20.5078	-58.5301			20.5078	-115.906
20.5078	-115.906			20.5078	-115.906
				20.5078	-115.906
21.9727	-59.1185			21.9727	-120.42
21.9727	-120.42			21.9727	-120.42
				21.9727	-120.42
23.4375	-59.7294			23.4375	-107.909
23.4375	-107.909			23.4375	-107.909
				23.4375	-107.909
24.9023	-59.9846			24.9023	-113.189
24.9023	-113.189			24.9023	-113.189
				24.9023	-113.189
26.3672	-60.727			26.3672	-107.323
26.3672	-107.323			26.3672	-107.323
				26.3672	-107.323
27.832	-61.245			27.832	-113.862
27.832	-113.862			27.832	-113.862
				27.832	-113.862
29.2969	-61.733			29.2969	-113.341
29.2969	-113.341			29.2969	-113.341
				29.2969	-113.341
30.7617	-62.4842			30.7617	-105.988
30.7617	-105.988			30.7617	-105.988
				30.7617	-105.988
32.2266	-63.0531			32.2266	-113.755
32.2266	-113.755			32.2266	-113.755
				32.2266	-113.755
33.6914	-63.9601			33.6914	-115.191
33.6914	-115.191			33.6914	-115.191
				33.6914	-115.191
35.1563	-64.452			35.1563	-111.102
35.1563	-111.102			35.1563	-111.102
				35.1563	-111.102
36.6211	-65.1744			36.6211	-109.174
36.6211	-109.174			36.6211	-109.174
				36.6211	-109.174
38.0859	-66.2556			38.0859	-113.069
38.0859	-113.069			38.0859	-113.069
				38.0859	-113.069
39.5508	-67.152			39.5508	-120.212
39.5508	-120.212			39.5508	-120.212
				39.5508	-120.212
41.0156	-67.699			41.0156	-118.493
41.0156	-118.493			41.0156	-118.493
				41.0156	-118.493
42.4805	-67.9988			42.4805	-118.198
42.4805	-118.198			42.4805	-118.198
				42.4805	-118.198
43.9453	-68.896			43.9453	-107.083
43.9453	-107.083			43.9453	-107.083
				43.9453	-107.083
45.4102	-69.2876			45.4102	-111.371
45.4102	-111.371			45.4102	-111.371
				45.4102	-111.371
46.875	-69.5356			46.875	-113.491
46.875	-113.491			46.875	-113.491
				46.875	-113.491
48.3398	-69.3902			48.3398	-114.787
48.3398	-114.787			48.3398	-114.787
				48.3398	-114.787
49.8047	-68.6091			49.8047	-116.103
49.8047	-116.103			49.8047	-116.103
				49.8047	-116.103
51.2695	-68.4637			51.2695	-118.04
51.2695	-118.04			51.2695	-118.04
				51.2695	-118.04
52.7344	-67.9975			52.7344	-113.552
52.7344	-113.552			52.7344	-113.552
				52.7344	-113.552
54.1992	-67.1799			54.1992	-123.896
54.1992	-123.896			54.1992	-123.896
				54.1992	-123.896
55.6641	-66.8226			55.6641	-110.442
55.6641	-110.442			55.6641	-110.442
				55.6641	-110.442
57.1289	-66.2398			57.1289	-109.791
57.1289	-109.791			57.1289	-109.791
				57.1289	-109.791
58.5938	-65.758			58.5938	-108.048
58.5938	-108.048			58.5938	-108.048
				58.5938	-108.048
60.0586	-65.0562			60.0586	-108.749
60.0586	-108.749			60.0586	-108.749
				60.0586	-108.749
61.5234	-64.4257			61.5234	-120.386
61.5234	-120.386			61.5234	-120.386
				61.5234	-120.386
		62.9883	-99.4425	62.9883	-110.384
		62.9883	-110.384	62.9883	-110.384
				62.9883	-110.384
64.4531	-63.6126			64.4531	-113.222
64.4531	-113.222			64.4531	-113.222
				64.4531	-113.222
65.918	-63.1209			65.918	-110.324
65.918	-110.324			65.918	-110.324
				65.918	-110.324
67.3828	-62.7675			67.3828	-115.878
67.3828	-115.878			67.3828	-115.878
				67.3828	-115.878
		68.8477	-96.3937	68.8477	-117.11
		68.8477	-117.11	68.8477	-117.11
				68.8477	-117.11
70.3125	-61.973			70.3125	-109.484
70.3125	-109.484			70.3125	-109.484
				70.3125	-109.484
71.7773	-61.5786			71.7773	-114.327
71.7773	-114.327			71.7773	-114.327
				71.7773	-114.327
73.2422	-61.4071			73.2422	-118.999
73.2422	-118.999			73.2422	-118.999
				73.2422	-118.999
		74.707	-100.136	74.707	-111.378
		74.707	-111.378	74.707	-111.378
				74.707	-111.378
76.1719	-60.7593			76.1719	-111.348
76.1719	-111.348			76.1719	-111.348
				76.1719	-111.348
77.6367	-60.4727			77.6367	-117.687
77.6367	-117.687			77.6367	-117.687
				77.6367	-117.687
		79.1016	-100.951	79.1016	-112.259
		79.1016	-112.259	79.1016	-112.259
				79.1016	-112.259
80.5664	-60.2885			80.5664	-110.036
80.5664	-110.036			80.5664	-110.036
				80.5664	-110.036
				82.0313	-111.353
				82.0313	-111.353
				82.0313	-111.353
83.4961	-59.6646			83.4961	-112.501
83.4961	-112.501			83.4961	-112.501
				83.4961	-112.501
84.9609	-59.4285			84.9609	-108.443
84.9609	-108.443			84.9609	-108.443
				84.9609	-108.443
		86.4258	-102.9	86.4258	-112.277
		86.4258	-112.277	86.4258	-112.277
				86.4258	-112.277
87.8906	-59.0947			87.8906	-107.98
87.8906	-107.98			87.8906	-107.98
				87.8906	-107.98
				89.3555	-111.909
				89.3555	-111.909
				89.3555	-111.909
90.8203	-58.6391			90.8203	-113.237
90.8203	-113.237			90.8203	-113.237
				90.8203	-113.237
92.2852	-58.5486			92.2852	-112.33
92.2852	-112.33			92.2852	-112.33
				92.2852	-112.33
		93.75	-100.438	93.75	-110.248
		93.75	-110.248	93.75	-110.248
				93.75	-110.248
95.2148	-58.2981			95.2148	-110.301
95.2148	-110.301			95.2148	-110.301
				95.2148	-110.301
				96.6797	-106.325
				96.6797	-106.325
				96.6797	-106.325
98.1445	-58.1102			98.1445	-110.837
98.1445	-110.837			98.1445	-110.837
				98.1445	-110.837
		99.6094	-102.459	99.6094	-107.848
		99.6094	-107.848	99.6094	-107.848
				99.6094	-107.848
101.074	-57.8063			101.074	-103.809
101.074	-103.809			101.074	-103.809
				101.074	-103.809
		102.539	-97.0631	102.539	-122.1
		102.539	-122.1	102.539	-122.1
				102.539	-122.1
104.004	-57.5953			104.004	-110.753
104.004	-110.753			104.004	-110.753
				104.004	-110.753
		105.469	-98.0485	105.469	-113.206
		105.469	-113.206	105.469	-113.206
				105.469	-113.206
106.934	-57.4409			106.934	-116.761
106.934	-116.761			106.934	-116.761
				106.934	-116.761
		108.398	-108.716	108.398	-122.254
		108.398	-122.254	108.398	-122.254
				108.398	-122.254
		109.863	-102.126	109.863	-106.088
		109.863	-106.088	109.863	-106.088
				109.863	-106.088
111.328	-57.1229			111.328	-110.772
111.328	-110.772			111.328	-110.772
				111.328	-110.772
		112.793	-104.448	112.793	-111.715
		112.793	-111.715	112.793	-111.715
				112.793	-111.715
114.258	-56.9581			114.258	-107.846
114.258	-107.846			114.258	-107.846
				114.258	-107.846
		115.723	-105.656	115.723	-113.604
		115.723	-113.604	115.723	-113.604
				115.723	-113.604
117.188	-56.8011			117.188	-113.078
117.188	-113.078			117.188	-113.078
				117.188	-113.078
		118.652	-98.0391	118.652	-110.569
		118.652	-110.569	118.652	-110.569
				118.652	-110.569
120.117	-56.6864			120.117	-110.932
120.117	-110.932			120.117	-110.932
				120.117	-110.932
		121.582	-108.052	121.582	-109.752
		121.582	-109.752	121.582	-109.752
				121.582	-109.752
		123.047	-101.283	123.047	-107.986
		123.047	-107.986	123.047	-107.986
				123.047	-107.986
124.512	-56.5016			124.512	-112.523
124.512	-112.523			124.512	-112.523
				124.512	-112.523
				125.977	-108.957
				125.977	-108.957
				125.977	-108.957
127.441	-56.4192			127.441	-114.832
127.441	-114.832			127.441	-114.832
				127.441	-114.832
		128.906	-114.869	128.906	-120.058
		128.906	-120.058	128.906	-120.058
				128.906	-120.058
		130.371	-103.662	130.371	-111.95
		130.371	-111.95	130.371	-111.95
				130.371	-111.95
131.836	-56.3165			131.836	-122.761
131.836	-122.761			131.836	-122.761
				131.836	-122.761
				133.301	-112.821
				133.301	-112.821
				133.301	-112.821
134.766	-56.1552			134.766	-106.162
134.766	-106.162			134.766	-106.162
				134.766	-106.162
		136.23	-93.9949	136.23	-111.222
		136.23	-111.222	136.23	-111.222
				136.23	-111.222
		137.695	-96.1681	137.695	-115.341
		137.695	-115.341	137.695	-115.341
				137.695	-115.341
139.16	-56.0042			139.16	-111.575
139.16	-111.575			139.16	-111.575
				139.16	-111.575
		140.625	-102.539	140.625	-109.651
		140.625	-109.651	140.625	-109.651
				140.625	-109.651
		142.09	-100.558	142.09	-121.148
		142.09	-121.148	142.09	-121.148
				142.09	-121.148
143.555	-55.9315			143.555	-119.066
143.555	-119.066			143.555	-119.066
				143.555	-119.066
		145.02	-98.9885	145.02	-109.648
		145.02	-109.648	145.02	-109.648
				145.02	-109.648
		146.484	-103.013	146.484	-111.114
		146.484	-111.114	146.484	-111.114
				146.484	-111.114
147.949	-55.7848			147.949	-107.691
147.949	-107.691			147.949	-107.691
				147.949	-107.691
		149.414	-98.3746	149.414	-131.661
		149.414	-131.661	149.414	-131.661
				149.414	-131.661
		150.879	-101.695	150.879	-118.042
		150.879	-118.042	150.879	-118.042
				150.879	-118.042
152.344	-55.7068			152.344	-109.529
152.344	-109.529			152.344	-109.529
				152.344	-109.529
		153.809	-108.181	153.809	-127.981
		153.809	-127.981	153.809	-127.981
				153.809	-127.981
		155.273	-107.747	155.273	-114.623
		155.273	-114.623	155.273	-114.623
				155.273	-114.623
156.738	-55.6251			156.738	-119.662
156.738	-119.662			156.738	-119.662
				156.738	-119.662
		158.203	-107.471	158.203	-113.091
		158.203	-113.091	158.203	-113.091
				158.203	-113.091
		159.668	-100.856	159.668	-114.448
		159.668	-114.448	159.668	-114.448
				159.668	-114.448
161.133	-55.5673			161.133	-107.881
161.133	-107.881			161.133	-107.881
				161.133	-107.881
		162.598	-105.24	162.598	-124.67
		162.598	-124.67	162.598	-124.67
				162.598	-124.67
		164.063	-108.254	164.063	-116.563
		164.063	-116.563	164.063	-116.563
				164.063	-116.563
165.527	-55.4954			165.527	-109.282
165.527	-109.282			165.527	-109.282
				165.527	-109.282
		166.992	-103.483	166.992	-108.78
		166.992	-108.78	166.992	-108.78
				166.992	-108.78
		168.457	-103.81	168.457	-109.947
		168.457	-109.947	168.457	-109.947
				168.457	-109.947
169.922	-55.472			169.922	-124.654
169.922	-124.654			169.922	-124.654
				169.922	-124.654
		171.387	-100.521	171.387	-116.686
		171.387	-116.686	171.387	-116.686
				171.387	-116.686
		172.852	-104.443	172.852	-113.43
		172.852	-113.43	172.852	-113.43
				172.852	-113.43
		174.316	-99.0959	174.316	-114.836
		174.316	-114.836	174.316	-114.836
				174.316	-114.836
175.781	-55.3946			175.781	-126.894
175.781	-126.894			175.781	-126.894
				175.781	-126.894
		177.246	-104.059	177.246	-111.971
		177.246	-111.971	177.246	-111.971
				177.246	-111.971
				178.711	-120.838
				178.711	-120.838
				178.711	-120.838
180.176	-55.3751			180.176	-113.817
180.176	-113.817			180.176	-113.817
				180.176	-113.817
				181.641	-110.369
				181.641	-110.369
				181.641	-110.369
				183.105	-113.312
				183.105	-113.312
				183.105	-113.312
		184.57	-105.196	184.57	-110.057
		184.57	-110.057	184.57	-110.057
				184.57	-110.057
186.035	-55.2833			186.035	-107.325
186.035	-107.325			186.035	-107.325
				186.035	-107.325
		187.5	-103.41	187.5	-119.261
		187.5	-119.261	187.5	-119.261
				187.5	-119.261
		188.965	-100.476	188.965	-113.746
		188.965	-113.746	188.965	-113.746
				188.965	-113.746
		190.43	-103.925	190.43	-132.288
		190.43	-132.288	190.43	-132.288
				190.43	-132.288
191.895	-55.2393			191.895	-124.872
191.895	-124.872			191.895	-124.872
				191.895	-124.872
		193.359	-104.061	193.359	-108.955
		193.359	-108.955	193.359	-108.955
				193.359	-108.955
		194.824	-101.989	194.824	-109.427
		194.824	-109.427	194.824	-109.427
				194.824	-109.427
		196.289	-106.571	196.289	-116.639
		196.289	-116.639	196.289	-116.639
				196.289	-116.639
197.754	-55.2181			197.754	-113.071
197.754	-113.071			197.754	-113.071
				197.754	-113.071
		199.219	-105.356	199.219	-120.256
		199.219	-120.256	199.219	-120.256
				199.219	-120.256
		200.684	-100.487	200.684	-121.432
		200.684	-121.432	200.684	-121.432
				200.684	-121.432
202.148	-55.1988			202.148	-116.008
202.148	-116.008			202.148	-116.008
				202.148	-116.008
		203.613	-100.203	203.613	-111.558
		203.613	-111.558	203.613	-111.558
				203.613	-111.558
		205.078	-101.167	205.078	-112.709
		205.078	-112.709	205.078	-112.709
				205.078	-112.709
		206.543	-101.822	206.543	-120.718
		206.543	-120.718	206.543	-120.718
				206.543	-120.718
		208.008	-96.387	208.008	-122.727
		208.008	-122.727	208.008	-122.727
				208.008	-122.727
209.473	-55.1375			209.473	-110.23
209.473	-110.23			209.473	-110.23
				209.473	-110.23
		210.938	-106.367	210.938	-118.866
		210.938	-118.866	210.938	-118.866
				210.938	-118.866
		212.402	-107.368	212.402	-130.761
		212.402	-130.761	212.402	-130.761
				212.402	-130.761
		213.867	-96.0687	213.867	-113.191
		213.867	-113.191	213.867	-113.191
				213.867	-113.191
215.332	-55.0924			215.332	-118.104
215.332	-118.104			215.332	-118.104
				215.332	-118.104
		216.797	-98.8298	216.797	-104.936
		216.797	-104.936	216.797	-104.936
				216.797	-104.936
		218.262	-98.7418	218.262	-111.326
		218.262	-111.326	218.262	-111.326
				218.262	-111.326
		219.727	-101.061	219.727	-111.094
		219.727	-111.094	219.727	-111.094
				219.727	-111.094
221.191	-55.1155			221.191	-108.762
221.191	-108.762			221.191	-108.762
				221.191	-108.762
		222.656	-103.683	222.656	-109.315
		222.656	-109.315	222.656	-109.315
				222.656	-109.315
		224.121	-98.3508	224.121	-112.281
		224.121	-112.281	224.121	-112.281
				224.121	-112.281
				225.586	-107.032
				225.586	-107.032
				225.586	-107.032
227.051	-55.1195			227.051	-111.73
227.051	-111.73			227.051	-111.73
				227.051	-111.73
		228.516	-96.5009	228.516	-113.544
		228.516	-113.544	228.516	-113.544
				228.516	-113.544
		229.98	-103.962	229.98	-112.722
		229.98	-112.722	229.98	-112.722
				229.98	-112.722
				231.445	-105.813
				231.445	-105.813
				231.445	-105.813
		232.91	-99.2792	232.91	-111.936
		232.91	-111.936	232.91	-111.936
				232.91	-111.936
234.375	-55.0867			234.375	-112.544
234.375	-112.544			234.375	-112.544
				234.375	-112.544
		235.84	-98.1251	235.84	-115.876
		235.84	-115.876	235.84	-115.876
				235.84	-115.876
		237.305	-104.856	237.305	-113.372
		237.305	-113.372	237.305	-113.372
				237.305	-113.372
				238.77	-106.154
				238.77	-106.154
				238.77	-106.154
				240.234	-114.34
				240.234	-114.34
				240.234	-114.34
241.699	-55.0797			241.699	-120.632
241.699	-120.632			241.699	-120.632
				241.699	-120.632
		243.164	-98.6107	243.164	-119.504
		243.164	-119.504	243.164	-119.504
				243.164	-119.504
		244.629	-102.462	244.629	-118.864
		244.629	-118.864	244.629	-118.864
				244.629	-118.864
		246.094	-95.2946	246.094	-107.664
		246.094	-107.664	246.094	-107.664
				246.094	-107.664
				247.559	-115.972
				247.559	-115.972
				247.559	-115.972
249.023	-55.0717			249.023	-108.537
249.023	-108.537			249.023	-108.537
				249.023	-108.537
		250.488	-108.264	250.488	-110.554
		250.488	-110.554	250.488	-110.554
				250.488	-110.554
		251.953	-104.325	251.953	-114.372
		251.953	-114.372	251.953	-114.372
				251.953	-114.372
		253.418	-102.145	253.418	-116.709
		253.418	-116.709	253.418	-116.709
				253.418	-116.709
254.883	-55.1295			254.883	-119.522
254.883	-119.522			254.883	-119.522
				254.883	-119.522
		256.348	-103.39	256.348	-114.011
		256.348	-114.011	256.348	-114.011
				256.348	-114.011
		257.813	-107.3	257.813	-114.251
		257.813	-114.251	257.813	-114.251
				257.813	-114.251
		259.277	-100.363	259.277	-106.777
		259.277	-106.777	259.277	-106.777
				259.277	-106.777
		260.742	-107.824	260.742	-120.432
		260.742	-120.432	260.742	-120.432
				260.742	-120.432
				262.207	-107.599
				262.207	-107.599
				262.207	-107.599
263.672	-55.0796			263.672	-118.921
263.672	-118.921			263.672	-118.921
				263.672	-118.921
		265.137	-101.988	265.137	-108.55
		265.137	-108.55	265.137	-108.55
				265.137	-108.55
				266.602	-115.839
				266.602	-115.839
				266.602	-115.839
		268.066	-106.223	268.066	-112.47
		268.066	-112.47	268.066	-112.47
				268.066	-112.47
		269.531	-97.9402	269.531	-129.394
		269.531	-129.394	269.531	-129.394
				269.531	-129.394
270.996	-55.1956			270.996	-125.662
270.996	-125.662			270.996	-125.662
				270.996	-125.662
				272.461	-116.035
				272.461	-116.035
				272.461	-116.035
		273.926	-98.8927	273.926	-109.695
		273.926	-109.695	273.926	-109.695
				273.926	-109.695
		275.391	-109.826	275.391	-111.005
		275.391	-111.005	275.391	-111.005
				275.391	-111.005
		276.855	-114.604	276.855	-116.907
		276.855	-116.907	276.855	-116.907
				276.855	-116.907
278.32	-55.1684			278.32	-110.267
278.32	-110.267			278.32	-110.267
				278.32	-110.267
				279.785	-113.831
				279.785	-113.831
				279.785	-113.831
		281.25	-103.079	281.25	-114.426
		281.25	-114.426	281.25	-114.426
				281.25	-114.426
		282.715	-98.6936	282.715	-118.178
		282.715	-118.178	282.715	-118.178
				282.715	-118.178
		284.18	-107.937	284.18	-109.899
		284.18	-109.899	284.18	-109.899
				284.18	-109.899
		285.645	-107.574	285.645	-114.072
		285.645	-114.072	285.645	-114.072
				285.645	-114.072
287.109	-55.1526			287.109	-116.692
287.109	-116.692			287.109	-116.692
				287.109	-116.692
		288.574	-100.427	288.574	-131.451
		288.574	-131.451	288.574	-131.451
				288.574	-131.451
		290.039	-105.045	290.039	-115.229
		290.039	-115.229	290.039	-115.229
				290.039	-115.229
				291.504	-110.543
				291.504	-110.543
				291.504	-110.543
		292.969	-105.347	292.969	-115.716
		292.969	-115.716	292.969	-115.716
				292.969	-115.716
		294.434	-102.228	294.434	-112.803
		294.434	-112.803	294.434	-112.803
				294.434	-112.803
295.898	-55.1066			295.898	-116.23
295.898	-116.23			295.898	-116.23
				295.898	-116.23
		297.363	-120.825	297.363	-126.883
		297.363	-126.883	297.363	-126.883
				297.363	-126.883
		298.828	-98.013	298.828	-117.387
		298.828	-117.387	298.828	-117.387
				298.828	-117.387
		300.293	-102.75	300.293	-108.148
		300.293	-108.148	300.293	-108.148
				300.293	-108.148
		301.758	-102.546	301.758	-106.828
		301.758	-106.828	301.758	-106.828
				301.758	-106.828
303.223	-55.0872			303.223	-113.657
303.223	-113.657			303.223	-113.657
				303.223	-113.657
				304.688	-109.523
				304.688	-109.523
				304.688	-109.523
		306.152	-102.161	306.152	-108.684
		306.152	-108.684	306.152	-108.684
				306.152	-108.684
		307.617	-98.1637	307.617	-117.121
		307.617	-117.121	307.617	-117.121
				307.617	-117.121
				309.082	-110.69
				309.082	-110.69
				309.082	-110.69
		310.547	-100.248	310.547	-107.338
		310.547	-107.338	310.547	-107.338
				310.547	-107.338
		312.012	-96.6859	312.012	-110.92
		312.012	-110.92	312.012	-110.92
				312.012	-110.92
313.477	-55.0873			313.477	-114.954
313.477	-114.954			313.477	-114.954
				313.477	-114.954
		314.941	-107.357	314.941	-109.878
		314.941	-109.878	314.941	-109.878
				314.941	-109.878
		316.406	-101.538	316.406	-112.794
		316.406	-112.794	316.406	-112.794
				316.406	-112.794
				317.871	-107.587
				317.871	-107.587
				317.871	-107.587
		319.336	-106.87	319.336	-112.359
		319.336	-112.359	319.336	-112.359
				319.336	-112.359
		320.801	-99.997	320.801	-118.487
		320.801	-118.487	320.801	-118.487
				320.801	-118.487
322.266	-55.1212			322.266	-121.504
322.266	-121.504			322.266	-121.504
				322.266	-121.504
		323.73	-98.9833	323.73	-114.689
		323.73	-114.689	323.73	-114.689
				323.73	-114.689
		325.195	-100.082	325.195	-104.602
		325.195	-104.602	325.195	-104.602
				325.195	-104.602
		326.66	-107.232	326.66	-116.573
		326.66	-116.573	326.66	-116.573
				326.66	-116.573
		328.125	-100.67	328.125	-121.735
		328.125	-121.735	328.125	-121.735
				328.125	-121.735
		329.59	-103.517	329.59	-114.894
		329.59	-114.894	329.59	-114.894
				329.59	-114.894
331.055	-55.1185			331.055	-117.204
331.055	-117.204			331.055	-117.204
				331.055	-117.204
				332.52	-109.96
				332.52	-109.96
				332.52	-109.96
		333.984	-109.408	333.984	-111.418
		333.984	-111.418	333.984	-111.418
				333.984	-111.418
		335.449	-107.761	335.449	-117.644
		335.449	-117.644	335.449	-117.644
				335.449	-117.644
		336.914	-101.374	336.914	-110.229
		336.914	-110.229	336.914	-110.229
				336.914	-110.229
		338.379	-108.568	338.379	-116.18
		338.379	-116.18	338.379	-116.18
				338.379	-116.18
		339.844	-103.517	339.844	-112.6
		339.844	-112.6	339.844	-112.6
				339.844	-112.6
341.309	-55.1326			341.309	-120.524
341.309	-120.524			341.309	-120.524
				341.309	-120.524
		342.773	-103.699	342.773	-115.413
		342.773	-115.413	342.773	-115.413
				342.773	-115.413
		344.238	-105.303	344.238	-109.702
		344.238	-109.702	344.238	-109.702
				344.238	-109.702
		345.703	-101.508	345.703	-108.968
		345.703	-108.968	345.703	-108.968
				345.703	-108.968
		347.168	-102.182	347.168	-119.226
		347.168	-119.226	347.168	-119.226
				347.168	-119.226
				348.633	-110.327
				348.633	-110.327
				348.633	-110.327
		350.098	-101.586	350.098	-115.67
		350.098	-115.67	350.098	-115.67
				350.098	-115.67
351.563	-55.1552			351.563	-113.312
351.563	-113.312			351.563	-113.312
				351.563	-113.312
		353.027	-106.423	353.027	-116.795
		353.027	-116.795	353.027	-116.795
				353.027	-116.795
				354.492	-109.33
				354.492	-109.33
				354.492	-109.33
		355.957	-104.88	355.957	-118.248
		355.957	-118.248	355.957	-118.248
				355.957	-118.248
		357.422	-98.3503	357.422	-118.591
		357.422	-118.591	357.422	-118.591
				357.422	-118.591
		358.887	-99.3517	358.887	-117.567
		358.887	-117.567	358.887	-117.567
				358.887	-117.567
		360.352	-101.373	360.352	-113.423
		360.352	-113.423	360.352	-113.423
				360.352	-113.423
361.816	-55.2078			361.816	-111.67
361.816	-111.67			361.816	-111.67
				361.816	-111.67
		363.281	-99.3775	363.281	-117.109
		363.281	-117.109	363.281	-117.109
				363.281	-117.109
				364.746	-106.92
				364.746	-106.92
				364.746	-106.92
		366.211	-100.032	366.211	-129.26
		366.211	-129.26	366.211	-129.26
				366.211	-129.26
		367.676	-106.029	367.676	-120.198
		367.676	-120.198	367.676	-120.198
				367.676	-120.198
		369.141	-100.766	369.141	-106.229
		369.141	-106.229	369.141	-106.229
				369.141	-106.229
		370.605	-107.997	370.605	-125.494
		370.605	-125.494	370.605	-125.494
				370.605	-125.494
372.07	-55.2011			372.07	-110.141
372.07	-110.141			372.07	-110.141
				372.07	-110.141
				373.535	-109.344
				373.535	-109.344
				373.535	-109.344
		375	-100.456	375	-113.274
		375	-113.274	375	-113.274
				375	-113.274
		376.465	-97.7097	376.465	-110.398
		376.465	-110.398	376.465	-110.398
				376.465	-110.398
		377.93	-103.188	377.93	-110.719
		377.93	-110.719	377.93	-110.719
				377.93	-110.719
		379.395	-109.441	379.395	-117.665
		379.395	-117.665	379.395	-117.665
				379.395	-117.665
		380.859	-104.222	380.859	-111.97
		380.859	-111.97	380.859	-111.97
				380.859	-111.97
382.324	-55.2712			382.324	-109.456
382.324	-109.456			382.324	-109.456
				382.324	-109.456
		383.789	-99.7702	383.789	-119.613
		383.789	-119.613	383.789	-119.613
				383.789	-119.613
		385.254	-113.984	385.254	-115.097
		385.254	-115.097	385.254	-115.097
				385.254	-115.097
		386.719	-104.319	386.719	-109.367
		386.719	-109.367	386.719	-109.367
				386.719	-109.367
		388.184	-101.2	388.184	-116.502
		388.184	-116.502	388.184	-116.502
				388.184	-116.502
		389.648	-107.216	389.648	-110.179
		389.648	-110.179	389.648	-110.179
				389.648	-110.179
		391.113	-99.5338	391.113	-112.235
		391.113	-112.235	391.113	-112.235
				391.113	-112.235
		392.578	-103.797	392.578	-111.723
		392.578	-111.723	392.578	-111.723
				392.578	-111.723
394.043	-55.2605			394.043	-124.82
394.043	-124.82			394.043	-124.82
				394.043	-124.82
		395.508	-99.4761	395.508	-108.709
		395.508	-108.709	395.508	-108.709
				395.508	-108.709
		396.973	-97.6854	396.973	-116.479
		396.973	-116.479	396.973	-116.479
				396.973	-116.479
		398.438	-100.932	398.438	-113.712
		398.438	-113.712	398.438	-113.712
				398.438	-113.712
		399.902	-102.106	399.902	-115.552
		399.902	-115.552	399.902	-115.552
				399.902	-115.552
		401.367	-103.775	401.367	-110.965
		401.367	-110.965	401.367	-110.965
				401.367	-110.965
		402.832	-100.703	402.832	-107.732
		402.832	-107.732	402.832	-107.732
				402.832	-107.732
		404.297	-98.767	404.297	-117.115
		404.297	-117.115	404.297	-117.115
				404.297	-117.115
405.762	-55.3308			405.762	-107.16
405.762	-107.16			405.762	-107.16
				405.762	-107.16
		407.227	-109.36	407.227	-115.329
		407.227	-115.329	407.227	-115.329
				407.227	-115.329
		408.691	-104.03	408.691	-118.567
		408.691	-118.567	408.691	-118.567
				408.691	-118.567
		410.156	-100.026	410.156	-109.989
		410.156	-109.989	410.156	-109.989
				410.156	-109.989
		411.621	-98.3361	411.621	-114.488
		411.621	-114.488	411.621	-114.488
				411.621	-114.488
		413.086	-103.513	413.086	-110.033
		413.086	-110.033	413.086	-110.033
				413.086	-110.033
		414.551	-107.212	414.551	-110.393
		414.551	-110.393	414.551	-110.393
				414.551	-110.393
		416.016	-105.313	416.016	-112.395
		416.016	-112.395	416.016	-112.395
				416.016	-112.395
417.48	-55.3402			417.48	-113.025
417.48	-113.025			417.48	-113.025
				417.48	-113.025
		418.945	-102.805	418.945	-118.159
		418.945	-118.159	418.945	-118.159
				418.945	-118.159
		420.41	-99.6527	420.41	-111.194
		420.41	-111.194	420.41	-111.194
				420.41	-111.194
				421.875	-110.23
				421.875	-110.23
				421.875	-110.23
		423.34	-103.177	423.34	-116.228
		423.34	-116.228	423.34	-116.228
				423.34	-116.228
		424.805	-103.716	424.805	-118.928
		424.805	-118.928	424.805	-118.928
				424.805	-118.928
				426.27	-111.41
				426.27	-111.41
				426.27	-111.41
		427.734	-101.932	427.734	-116.907
		427.734	-116.907	427.734	-116.907
				427.734	-116.907
429.199	-55.3259			429.199	-109.961
429.199	-109.961			429.199	-109.961
				429.199	-109.961
		430.664	-105.302	430.664	-112.898
		430.664	-112.898	430.664	-112.898
				430.664	-112.898
		432.129	-105.727	432.129	-109.687
		432.129	-109.687	432.129	-109.687
				432.129	-109.687
		433.594	-99.3241	433.594	-113.21
		433.594	-113.21	433.594	-113.21
				433.594	-113.21
		435.059	-97.7499	435.059	-108.736
		435.059	-108.736	435.059	-108.736
				435.059	-108.736
		436.523	-108.506	436.523	-124.771
		436.523	-124.771	436.523	-124.771
				436.523	-124.771
		437.988	-99.1078	437.988	-109.436
		437.988	-109.436	437.988	-109.436
				437.988	-109.436
		439.453	-115.358	439.453	-131.9
		439.453	-131.9	439.453	-131.9
				439.453	-131.9
		440.918	-102.307	440.918	-113.448
		440.918	-113.448	440.918	-113.448
				440.918	-113.448
442.383	-55.4204			442.383	-109.771
442.383	-109.771			442.383	-109.771
				442.383	-109.771
		443.848	-99.5111	443.848	-112.955
		443.848	-112.955	443.848	-112.955
				443.848	-112.955
		445.313	-111.843	445.313	-114.446
		445.313	-114.446	445.313	-114.446
				445.313	-114.446
		446.777	-106.078	446.777	-121.832
		446.777	-121.832	446.777	-121.832
				446.777	-121.832
		448.242	-99.3	448.242	-110.889
		448.242	-110.889	448.242	-110.889
				448.242	-110.889
				449.707	-110.973
				449.707	-110.973
				449.707	-110.973
		451.172	-102.068	451.172	-115.454
		451.172	-115.454	451.172	-115.454
				451.172	-115.454
		452.637	-100.49	452.637	-109.087
		452.637	-109.087	452.637	-109.087
				452.637	-109.087
		454.102	-107.697	454.102	-119.846
		454.102	-119.846	454.102	-119.846
				454.102	-119.846
455.566	-55.4309			455.566	-118.593
455.566	-118.593			455.566	-118.593
				455.566	-118.593
		457.031	-101.667	457.031	-132.985
		457.031	-132.985	457.031	-132.985
				457.031	-132.985
		458.496	-110.886	458.496	-119.612
		458.496	-119.612	458.496	-119.612
				458.496	-119.612
		459.961	-107.525	459.961	-109.502
		459.961	-109.502	459.961	-109.502
				459.961	-109.502
		461.426	-106.446	461.426	-124.633
		461.426	-124.633	461.426	-124.633
				461.426	-124.633
		462.891	-102.261	462.891	-109.843
		462.891	-109.843	462.891	-109.843
				462.891	-109.843
		464.355	-100.274	464.355	-117.824
		464.355	-117.824	464.355	-117.824
				464.355	-117.824
				465.82	-108.824
				465.82	-108.824
				465.82	-108.824
		467.285	-98.3966	467.285	-116.998
		467.285	-116.998	467.285	-116.998
				467.285	-116.998
468.75	-55.4473			468.75	-106.579
468.75	-106.579			468.75	-106.579
				468.75	-106.579
				470.215	-110.903
				470.215	-110.903
				470.215	-110.903
		471.68	-105.016	471.68	-120.342
		471.68	-120.342	471.68	-120.342
				471.68	-120.342
		473.145	-107.291	473.145	-108.89
		473.145	-108.89	473.145	-108.89
				473.145	-108.89
				474.609	-109.021
				474.609	-109.021
				474.609	-109.021
		476.074	-102.255	476.074	-111.311
		476.074	-111.311	476.074	-111.311
				476.074	-111.311
		477.539	-102.971	477.539	-121.857
		477.539	-121.857	477.539	-121.857
				477.539	-121.857
		479.004	-100.679	479.004	-113.912
		479.004	-113.912	479.004	-113.912
				479.004	-113.912
				480.469	-106.889
				480.469	-106.889
				480.469	-106.889
481.934	-55.5009			481.934	-130.293
481.934	-130.293			481.934	-130.293
				481.934	-130.293
		483.398	-108.653	483.398	-122.188
		483.398	-122.188	483.398	-122.188
				483.398	-122.188
		484.863	-103.48	484.863	-107.094
		484.863	-107.094	484.863	-107.094
				484.863	-107.094
		486.328	-108.283	486.328	-122.167
		486.328	-122.167	486.328	-122.167
				486.328	-122.167
		487.793	-101.82	487.793	-111.492
		487.793	-111.492	487.793	-111.492
				487.793	-111.492
		489.258	-100.368	489.258	-116.733
		489.258	-116.733	489.258	-116.733
				489.258	-116.733
				490.723	-112.527
				490.723	-112.527
				490.723	-112.527
		492.188	-98.9883	492.188	-115.341
		492.188	-115.341	492.188	-115.341
				492.188	-115.341
		493.652	-107.376	493.652	-110.089
		493.652	-110.089	493.652	-110.089
				493.652	-110.089
				495.117	-107.659
				495.117	-107.659
				495.117	-107.659
496.582	-55.5891			496.582	-107.606
496.582	-107.606			496.582	-107.606
				496.582	-107.606
		498.047	-108.296	498.047	-113.021
		498.047	-113.021	498.047	-113.021
				498.047	-113.021
		499.512	-100.744	499.512	-113.208
		499.512	-113.208	499.512	-113.208
				499.512	-113.208
		500.977	-107.833	500.977	-116.059
		500.977	-116.059	500.977	-116.059
				500.977	-116.059
		502.441	-106.902	502.441	-124.46
		502.441	-124.46	502.441	-124.46
				502.441	-124.46
		503.906	-99.1432	503.906	-108.738
		503.906	-108.738	503.906	-108.738
				503.906	-108.738
				505.371	-111.524
				505.371	-111.524
				505.371	-111.524
		506.836	-107.017	506.836	-119.838
		506.836	-119.838	506.836	-119.838
				506.836	-119.838
		508.301	-106.477	508.301	-113.581
		508.301	-113.581	508.301	-113.581
				508.301	-113.581
		509.766	-110.069	509.766	-113.075
		509.766	-113.075	509.766	-113.075
				509.766	-113.075
511.23	-55.5981			511.23	-118.116
511.23	-118.116			511.23	-118.116
				511.23	-118.116
				512.695	-112.657
				512.695	-112.657
				512.695	-112.657
				514.16	-108.743
				514.16	-108.743
				514.16	-108.743
		515.625	-108.059	515.625	-136.869
		515.625	-136.869	515.625	-136.869
				515.625	-136.869
				517.09	-112.361
				517.09	-112.361
				517.09	-112.361
		518.555	-99.5586	518.555	-116.482
		518.555	-116.482	518.555	-116.482
				518.555	-116.482
				520.02	-110.453
				520.02	-110.453
				520.02	-110.453
		521.484	-100.194	521.484	-118.665
		521.484	-118.665	521.484	-118.665
				521.484	-118.665
				522.949	-108.456
				522.949	-108.456
				522.949	-108.456
		524.414	-99.1084	524.414	-117.347
		524.414	-117.347	524.414	-117.347
				524.414	-117.347
525.879	-55.6189			525.879	-115.36
525.879	-115.36			525.879	-115.36
				525.879	-115.36
		527.344	-109.069	527.344	-114.069
		527.344	-114.069	527.344	-114.069
				527.344	-114.069
		528.809	-108.575	528.809	-111.278
		528.809	-111.278	528.809	-111.278
				528.809	-111.278
				530.273	-113.101
				530.273	-113.101
				530.273	-113.101
		531.738	-108.665	531.738	-110.729
		531.738	-110.729	531.738	-110.729
				531.738	-110.729
		533.203	-102.139	533.203	-110.696
		533.203	-110.696	533.203	-110.696
				533.203	-110.696
		534.668	-102.377	534.668	-112.472
		534.668	-112.472	534.668	-112.472
				534.668	-112.472
		536.133	-106.058	536.133	-117.728
		536.133	-117.728	536.133	-117.728
				536.133	-117.728
		537.598	-104.36	537.598	-117.884
		537.598	-117.884	537.598	-117.884
				537.598	-117.884
		539.063	-106.653	539.063	-112.924
		539.063	-112.924	539.063	-112.924
				539.063	-112.924
		540.527	-107.298	540.527	-118.046
		540.527	-118.046	540.527	-118.046
				540.527	-118.046
541.992	-55.6954			541.992	-129.188
541.992	-129.188			541.992	-129.188
				541.992	-129.188
		543.457	-105.2	543.457	-111.177
		543.457	-111.177	543.457	-111.177
				543.457	-111.177
		544.922	-106.029	544.922	-114.047
		544.922	-114.047	544.922	-114.047
				544.922	-114.047
		546.387	-108.259	546.387	-115.082
		546.387	-115.082	546.387	-115.082
				546.387	-115.082
		547.852	-108.611	547.852	-113.069
		547.852	-113.069	547.852	-113.069
				547.852	-113.069
		549.316	-114.011	549.316	-118.21
		549.316	-118.21	549.316	-118.21
				549.316	-118.21
		550.781	-104.993	550.781	-119.551
		550.781	-119.551	550.781	-119.551
				550.781	-119.551
		552.246	-105.798	552.246	-109.12
		552.246	-109.12	552.246	-109.12
				552.246	-109.12
		553.711	-105.248	553.711	-122.967
		553.711	-122.967	553.711	-122.967
				553.711	-122.967
		555.176	-103.934	555.176	-115.733
		555.176	-115.733	555.176	-115.733
				555.176	-115.733
		556.641	-104.503	556.641	-120.075
		556.641	-120.075	556.641	-120.075
				556.641	-120.075
558.105	-55.7963			558.105	-111.685
558.105	-111.685			558.105	-111.685
				558.105	-111.685
		559.57	-102.737	559.57	-111.779
		559.57	-111.779	559.57	-111.779
				559.57	-111.779
		561.035	-109.934	561.035	-112.603
		561.035	-112.603	561.035	-112.603
				561.035	-112.603
		562.5	-109.169	562.5	-117.768
		562.5	-117.768	562.5	-117.768
				562.5	-117.768
				563.965	-104.46
				563.965	-104.46
				563.965	-104.46
		565.43	-101.344	565.43	-112.789
		565.43	-112.789	565.43	-112.789
				565.43	-112.789
				566.895	-111.108
				566.895	-111.108
				566.895	-111.108
		568.359	-104.928	568.359	-123.396
		568.359	-123.396	568.359	-123.396
				568.359	-123.396
		569.824	-102.94	569.824	-122.861
		569.824	-122.861	569.824	-122.861
				569.824	-122.861
		571.289	-103.045	571.289	-112.943
		571.289	-112.943	571.289	-112.943
				571.289	-112.943
		572.754	-104.075	572.754	-107.585
		572.754	-107.585	572.754	-107.585
				572.754	-107.585
574.219	-55.8156			574.219	-115.034
574.219	-115.034			574.219	-115.034
				574.219	-115.034
		575.684	-104.798	575.684	-112.523
		575.684	-112.523	575.684	-112.523
				575.684	-112.523
		577.148	-100.588	577.148	-108.299
		577.148	-108.299	577.148	-108.299
				577.148	-108.299
		578.613	-107.479	578.613	-108.809
		578.613	-108.809	578.613	-108.809
				578.613	-108.809
		580.078	-106.953	580.078	-114.065
		580.078	-114.065	580.078	-114.065
				580.078	-114.065
		581.543	-104.963	581.543	-109.241
		581.543	-109.241	581.543	-109.241
				581.543	-109.241
		583.008	-103.588	583.008	-117.919
		583.008	-117.919	583.008	-117.919
				583.008	-117.919
		584.473	-99.8784	584.473	-110.292
		584.473	-110.292	584.473	-110.292
				584.473	-110.292
				585.938	-114.776
				585.938	-114.776
				585.938	-114.776
		587.402	-105.192	587.402	-107.91
		587.402	-107.91	587.402	-107.91
				587.402	-107.91
		588.867	-101.433	588.867	-145.919
		588.867	-145.919	588.867	-145.919
				588.867	-145.919
590.332	-55.9411			590.332	-117.039
590.332	-117.039			590.332	-117.039
				590.332	-117.039
		591.797	-109.846	591.797	-116.606
		591.797	-116.606	591.797	-116.606
				591.797	-116.606
				593.262	-109.196
				593.262	-109.196
				593.262	-109.196
		594.727	-104.464	594.727	-120.989
		594.727	-120.989	594.727	-120.989
				594.727	-120.989
		596.191	-103.102	596.191	-113.945
		596.191	-113.945	596.191	-113.945
				596.191	-113.945
		597.656	-101.773	597.656	-116.847
		597.656	-116.847	597.656	-116.847
				597.656	-116.847
		599.121	-115.676	599.121	-119.057
		599.121	-119.057	599.121	-119.057
				599.121	-119.057
		600.586	-106.592	600.586	-120.801
		600.586	-120.801	600.586	-120.801
				600.586	-120.801
		602.051	-99.6915	602.051	-117.551
		602.051	-117.551	602.051	-117.551
				602.051	-117.551
		603.516	-110.221	603.516	-112
		603.516	-112	603.516	-112
				603.516	-112
				604.98	-108.816
				604.98	-108.816
				604.98	-108.816
		606.445	-101.386	606.445	-110.653
		606.445	-110.653	606.445	-110.653
				606.445	-110.653
607.91	-55.919			607.91	-106.714
607.91	-106.714			607.91	-106.714
				607.91	-106.714
		609.375	-97.7183	609.375	-117.922
		609.375	-117.922	609.375	-117.922
				609.375	-117.922
		610.84	-105.092	610.84	-111.041
		610.84	-111.041	610.84	-111.041
				610.84	-111.041
		612.305	-98.9597	612.305	-110.17
		612.305	-110.17	612.305	-110.17
				612.305	-110.17
		613.77	-99.5918	613.77	-115.965
		613.77	-115.965	613.77	-115.965
				613.77	-115.965
		615.234	-107.138	615.234	-120.828
		615.234	-120.828	615.234	-120.828
				615.234	-120.828
		616.699	-103.802	616.699	-116.482
		616.699	-116.482	616.699	-116.482
				616.699	-116.482
				618.164	-109.202
				618.164	-109.202
				618.164	-109.202
		619.629	-105.998	619.629	-124.491
		619.629	-124.491	619.629	-124.491
				619.629	-124.491
		621.094	-109.961	621.094	-114.438
		621.094	-114.438	621.094	-114.438
				621.094	-114.438
		622.559	-99.827	622.559	-106.946
		622.559	-106.946	622.559	-106.946
				622.559	-106.946
		624.023	-108.689	624.023	-113.666
		624.023	-113.666	624.023	-113.666
				624.023	-113.666
625.488	-56.0092			625.488	-114.765
625.488	-114.765			625.488	-114.765
				625.488	-114.765
		626.953	-107.155	626.953	-119.29
		626.953	-119.29	626.953	-119.29
				626.953	-119.29
		628.418	-103.472	628.418	-110.568
		628.418	-110.568	628.418	-110.568
				628.418	-110.568
		629.883	-98.3723	629.883	-113.204
		629.883	-113.204	629.883	-113.204
				629.883	-113.204
		631.348	-101.843	631.348	-118.244
		631.348	-118.244	631.348	-118.244
				631.348	-118.244
		632.813	-97.6458	632.813	-107.719
		632.813	-107.719	632.813	-107.719
				632.813	-107.719
		634.277	-103.921	634.277	-108.987
		634.277	-108.987	634.277	-108.987
				634.277	-108.987
		635.742	-101.742	635.742	-115.616
		635.742	-115.616	635.742	-115.616
				635.742	-115.616
		637.207	-107.132	637.207	-124.483
		637.207	-124.483	637.207	-124.483
				637.207	-124.483
		638.672	-105.074	638.672	-112.707
		638.672	-112.707	638.672	-112.707
				638.672	-112.707
				640.137	-101.42
				640.137	-101.42
				640.137	-101.42
		641.602	-101.661	641.602	-111.44
		641.602	-111.44	641.602	-111.44
				641.602	-111.44
		643.066	-100.59	643.066	-108.927
		643.066	-108.927	643.066	-108.927
				643.066	-108.927
644.531	-56.0355			644.531	-112.296
644.531	-112.296			644.531	-112.296
				644.531	-112.296
		645.996	-108.391	645.996	-113.356
		645.996	-113.356	645.996	-113.356
				645.996	-113.356
		647.461	-105.158	647.461	-116.518
		647.461	-116.518	647.461	-116.518
				647.461	-116.518
		648.926	-106.975	648.926	-123.939
		648.926	-123.939	648.926	-123.939
				648.926	-123.939
		650.391	-104.81	650.391	-119.009
		650.391	-119.009	650.391	-119.009
				650.391	-119.009
				651.855	-110.569
				651.855	-110.569
				651.855	-110.569
		653.32	-107.637	653.32	-110.958
		653.32	-110.958	653.32	-110.958
				653.32	-110.958
				654.785	-116.248
				654.785	-116.248
				654.785	-116.248
		656.25	-106.59	656.25	-120.136
		656.25	-120.136	656.25	-120.136
				656.25	-120.136
		657.715	-100.554	657.715	-114.3
		657.715	-114.3	657.715	-114.3
				657.715	-114.3
		659.18	-102.867	659.18	-111.345
		659.18	-111.345	659.18	-111.345
				659.18	-111.345
		660.645	-106.009	660.645	-108.194
		660.645	-108.194	660.645	-108.194
				660.645	-108.194
		662.109	-105.667	662.109	-114.905
		662.109	-114.905	662.109	-114.905
				662.109	-114.905
663.574	-56.1707			663.574	-115.471
663.574	-115.471			663.574	-115.471
				663.574	-115.471
		665.039	-100.942	665.039	-109.288
		665.039	-109.288	665.039	-109.288
				665.039	-109.288
		666.504	-111.325	666.504	-115.472
		666.504	-115.472	666.504	-115.472
				666.504	-115.472
				667.969	-108.524
				667.969	-108.524
				667.969	-108.524
				669.434	-116.094
				669.434	-116.094
				669.434	-116.094
		670.898	-103.32	670.898	-114.249
		670.898	-114.249	670.898	-114.249
				670.898	-114.249
		672.363	-108.199	672.363	-116.351
		672.363	-116.351	672.363	-116.351
				672.363	-116.351
				673.828	-111.131
				673.828	-111.131
				673.828	-111.131
		675.293	-108.014	675.293	-114.549
		675.293	-114.549	675.293	-114.549
				675.293	-114.549
		676.758	-104.348	676.758	-110.975
		676.758	-110.975	676.758	-110.975
				676.758	-110.975
		678.223	-108.748	678.223	-110.039
		678.223	-110.039	678.223	-110.039
				678.223	-110.039
		679.688	-104.167	679.688	-110.105
		679.688	-110.105	679.688	-110.105
				679.688	-110.105
		681.152	-103.327	681.152	-109.417
		681.152	-109.417	681.152	-109.417
				681.152	-109.417
682.617	-56.2229			682.617	-113.03
682.617	-113.03			682.617	-113.03
				682.617	-113.03
		684.082	-102.738	684.082	-118.383
		684.082	-118.383	684.082	-118.383
				684.082	-118.383
		685.547	-104.53	685.547	-114.672
		685.547	-114.672	685.547	-114.672
				685.547	-114.672
				687.012	-111.253
				687.012	-111.253
				687.012	-111.253
		688.477	-108.67	688.477	-111.623
		688.477	-111.623	688.477	-111.623
				688.477	-111.623
		689.941	-106.261	689.941	-109.123
		689.941	-109.123	689.941	-109.123
				689.941	-109.123
		691.406	-112.261	691.406	-115.812
		691.406	-115.812	691.406	-115.812
				691.406	-115.812
		692.871	-108.248	692.871	-120.55
		692.871	-120.55	692.871	-120.55
				692.871	-120.55
		694.336	-101.07	694.336	-122.764
		694.336	-122.764	694.336	-122.764
				694.336	-122.764
		695.801	-109.229	695.801	-124.811
		695.801	-124.811	695.801	-124.811
				695.801	-124.811
		697.266	-107.663	697.266	-113.009
		697.266	-113.009	697.266	-113.009
				697.266	-113.009
		698.73	-103.707	698.73	-116.204
		698.73	-116.204	698.73	-116.204
				698.73	-116.204
				700.195	-109.958
				700.195	-109.958
				700.195	-109.958
701.66	-56.2909			701.66	-111.288
701.66	-111.288			701.66	-111.288
				701.66	-111.288
		703.125	-111.561	703.125	-116.364
		703.125	-116.364	703.125	-116.364
				703.125	-116.364
		704.59	-104.046	704.59	-112.378
		704.59	-112.378	704.59	-112.378
				704.59	-112.378
		706.055	-108.539	706.055	-113.566
		706.055	-113.566	706.055	-113.566
				706.055	-113.566
		707.52	-106.336	707.52	-119.089
		707.52	-119.089	707.52	-119.089
				707.52	-119.089
				708.984	-110.901
				708.984	-110.901
				708.984	-110.901
				710.449	-112.056
				710.449	-112.056
				710.449	-112.056
		711.914	-108.62	711.914	-117.474
		711.914	-117.474	711.914	-117.474
				711.914	-117.474
		713.379	-105.417	713.379	-108.439
		713.379	-108.439	713.379	-108.439
				713.379	-108.439
		714.844	-101.7	714.844	-118.786
		714.844	-118.786	714.844	-118.786
				714.844	-118.786
		716.309	-99.2879	716.309	-115.506
		716.309	-115.506	716.309	-115.506
				716.309	-115.506
				717.773	-107.881
				717.773	-107.881
				717.773	-107.881
		719.238	-110.457	719.238	-118.399
		719.238	-118.399	719.238	-118.399
				719.238	-118.399
		720.703	-102.205	720.703	-121.36
		720.703	-121.36	720.703	-121.36
				720.703	-121.36
		722.168	-102.133	722.168	-115.668
		722.168	-115.668	722.168	-115.668
				722.168	-115.668
723.633	-56.3689			723.633	-120.415
723.633	-120.415			723.633	-120.415
				723.633	-120.415
		725.098	-104.618	725.098	-133.896
		725.098	-133.896	725.098	-133.896
				725.098	-133.896
		726.563	-106.722	726.563	-110.699
		726.563	-110.699	726.563	-110.699
				726.563	-110.699
		728.027	-100.427	728.027	-106.852
		728.027	-106.852	728.027	-106.852
				728.027	-106.852
		729.492	-112.048	729.492	-120.12
		729.492	-120.12	729.492	-120.12
				729.492	-120.12
		730.957	-98.0974	730.957	-120.476
		730.957	-120.476	730.957	-120.476
				730.957	-120.476
		732.422	-115.031	732.422	-129.914
		732.422	-129.914	732.422	-129.914
				732.422	-129.914
		733.887	-109.408	733.887	-115.251
		733.887	-115.251	733.887	-115.251
				733.887	-115.251
				735.352	-105.88
				735.352	-105.88
				735.352	-105.88
		736.816	-108.851	736.816	-112.071
		736.816	-112.071	736.816	-112.071
				736.816	-112.071
		738.281	-105.635	738.281	-114.114
		738.281	-114.114	738.281	-114.114
				738.281	-114.114
				739.746	-110.035
				739.746	-110.035
				739.746	-110.035
		741.211	-104.959	741.211	-112.81
		741.211	-112.81	741.211	-112.81
				741.211	-112.81
		742.676	-101.405	742.676	-108.746
		742.676	-108.746	742.676	-108.746
				742.676	-108.746
744.141	-56.4403			744.141	-111.306
744.141	-111.306			744.141	-111.306
				744.141	-111.306
		745.605	-107.848	745.605	-124.796
		745.605	-124.796	745.605	-124.796
				745.605	-124.796
				747.07	-111.049
				747.07	-111.049
				747.07	-111.049
		748.535	-106.561	748.535	-115.361
		748.535	-115.361	748.535	-115.361
				748.535	-115.361
				750	-112.55
				750	-112.55
				750	-112.55
				751.465	-108.726
				751.465	-108.726
				751.465	-108.726
		752.93	-105.273	752.93	-111.939
		752.93	-111.939	752.93	-111.939
				752.93	-111.939
		754.395	-102.112	754.395	-109.335
		754.395	-109.335	754.395	-109.335
				754.395	-109.335
				755.859	-105.459
				755.859	-105.459
				755.859	-105.459
		757.324	-105.184	757.324	-118.991
		757.324	-118.991	757.324	-118.991
				757.324	-118.991
		758.789	-99.4866	758.789	-115.257
		758.789	-115.257	758.789	-115.257
				758.789	-115.257
		760.254	-110.179	760.254	-118.328
		760.254	-118.328	760.254	-118.328
				760.254	-118.328
		761.719	-102.888	761.719	-118.033
		761.719	-118.033	761.719	-118.033
				761.719	-118.033
		763.184	-101.024	763.184	-113.366
		763.184	-113.366	763.184	-113.366
				763.184	-113.366
		764.648	-109.414	764.648	-121.619
		764.648	-121.619	764.648	-121.619
				764.648	-121.619
766.113	-56.5291			766.113	-110.897
766.113	-110.897			766.113	-110.897
				766.113	-110.897
		767.578	-105.03	767.578	-128.804
		767.578	-128.804	767.578	-128.804
				767.578	-128.804
				769.043	-111.067
				769.043	-111.067
				769.043	-111.067
		770.508	-106.228	770.508	-119.566
		770.508	-119.566	770.508	-119.566
				770.508	-119.566
		771.973	-116.038	771.973	-120.486
		771.973	-120.486	771.973	-120.486
				771.973	-120.486
				773.438	-111.944
				773.438	-111.944
				773.438	-111.944
		774.902	-98.7133	774.902	-108.472
		774.902	-108.472	774.902	-108.472
				774.902	-108.472
		776.367	-110.103	776.367	-112.573
		776.367	-112.573	776.367	-112.573
				776.367	-112.573
		777.832	-104.62	777.832	-115.136
		777.832	-115.136	777.832	-115.136
				777.832	-115.136
		779.297	-104.377	779.297	-133.138
		779.297	-133.138	779.297	-133.138
				779.297	-133.138
		780.762	-111.545	780.762	-117.756
		780.762	-117.756	780.762	-117.756
				780.762	-117.756
		782.227	-98.3941	782.227	-119.202
		782.227	-119.202	782.227	-119.202
				782.227	-119.202
		783.691	-101.781	783.691	-112.03
		783.691	-112.03	783.691	-112.03
				783.691	-112.03
				785.156	-107.591
				785.156	-107.591
				785.156	-107.591
		786.621	-107.424	786.621	-111.257
		786.621	-111.257	786.621	-111.257
				786.621	-111.257
788.086	-56.6194			788.086	-109.361
788.086	-109.361			788.086	-109.361
				788.086	-109.361
		789.551	-103.916	789.551	-113.938
		789.551	-113.938	789.551	-113.938
				789.551	-113.938
		791.016	-110.533	791.016	-112.695
		791.016	-112.695	791.016	-112.695
				791.016	-112.695
				792.48	-107.949
				792.48	-107.949
				792.48	-107.949
				793.945	-107.537
				793.945	-107.537
				793.945	-107.537
		795.41	-106.696	795.41	-118.071
		795.41	-118.071	795.41	-118.071
				795.41	-118.071
		796.875	-103.666	796.875	-121.197
		796.875	-121.197	796.875	-121.197
				796.875	-121.197
		798.34	-101.096	798.34	-105.561
		798.34	-105.561	798.34	-105.561
				798.34	-105.561
				799.805	-110.784
				799.805	-110.784
				799.805	-110.784
		801.27	-103.364	801.27	-118.004
		801.27	-118.004	801.27	-118.004
				801.27	-118.004
		802.734	-103.795	802.734	-114.182
		802.734	-114.182	802.734	-114.182
				802.734	-114.182
		804.199	-104.689	804.199	-112.316
		804.199	-112.316	804.199	-112.316
				804.199	-112.316
		805.664	-102.427	805.664	-116.423
		805.664	-116.423	805.664	-116.423
				805.664	-116.423
		807.129	-101.284	807.129	-106.491
		807.129	-106.491	807.129	-106.491
				807.129	-106.491
		808.594	-99.7834	808.594	-119.02
		808.594	-119.02	808.594	-119.02
				808.594	-119.02
		810.059	-109.842	810.059	-111.849
		810.059	-111.849	810.059	-111.849
				810.059	-111.849
811.523	-56.7003			811.523	-110.998
811.523	-110.998			811.523	-110.998
				811.523	-110.998
				812.988	-105.142
				812.988	-105.142
				812.988	-105.142
		814.453	-103.255	814.453	-110.857
		814.453	-110.857	814.453	-110.857
				814.453	-110.857
		815.918	-105.526	815.918	-112.333
		815.918	-112.333	815.918	-112.333
				815.918	-112.333
		817.383	-99.2316	817.383	-117.442
		817.383	-117.442	817.383	-117.442
				817.383	-117.442
		818.848	-110.059	818.848	-116.875
		818.848	-116.875	818.848	-116.875
				818.848	-116.875
		820.313	-99.152	820.313	-116.86
		820.313	-116.86	820.313	-116.86
				820.313	-116.86
		821.777	-106.431	821.777	-117.004
		821.777	-117.004	821.777	-117.004
				821.777	-117.004
		823.242	-119.332	823.242	-125.245
		823.242	-125.245	823.242	-125.245
				823.242	-125.245
		824.707	-100.3	824.707	-116.69
		824.707	-116.69	824.707	-116.69
				824.707	-116.69
		826.172	-109.561	826.172	-113.574
		826.172	-113.574	826.172	-113.574
				826.172	-113.574
		827.637	-98.8693	827.637	-120.851
		827.637	-120.851	827.637	-120.851
				827.637	-120.851
		829.102	-105.348	829.102	-112.284
		829.102	-112.284	829.102	-112.284
				829.102	-112.284
		830.566	-99.0193	830.566	-116.067
		830.566	-116.067	830.566	-116.067
				830.566	-116.067
		832.031	-101.765	832.031	-118.884
		832.031	-118.884	832.031	-118.884
				832.031	-118.884
		833.496	-108.535	833.496	-125.585
		833.496	-125.585	833.496	-125.585
				833.496	-125.585
834.961	-56.748			834.961	-111.847
834.961	-111.847			834.961	-111.847
				834.961	-111.847
		836.426	-102.978	836.426	-114.565
		836.426	-114.565	836.426	-114.565
				836.426	-114.565
		837.891	-99.6806	837.891	-115.438
		837.891	-115.438	837.891	-115.438
				837.891	-115.438
		839.355	-107.895	839.355	-109.225
		839.355	-109.225	839.355	-109.225
				839.355	-109.225
		840.82	-103.78	840.82	-111.295
		840.82	-111.295	840.82	-111.295
				840.82	-111.295
		842.285	-104.945	842.285	-110.625
		842.285	-110.625	842.285	-110.625
				842.285	-110.625
		843.75	-105.552	843.75	-112.216
		843.75	-112.216	843.75	-112.216
				843.75	-112.216
		845.215	-112.259	845.215	-115.503
		845.215	-115.503	845.215	-115.503
				845.215	-115.503
		846.68	-106.298	846.68	-117.351
		846.68	-117.351	846.68	-117.351
				846.68	-117.351
		848.145	-102.425	848.145	-121.213
		848.145	-121.213	848.145	-121.213
				848.145	-121.213
		849.609	-104.798	849.609	-113.431
		849.609	-113.431	849.609	-113.431
				849.609	-113.431
		851.074	-104.288	851.074	-114.534
		851.074	-114.534	851.074	-114.534
				851.074	-114.534
				852.539	-114.531
				852.539	-114.531
				852.539	-114.531
		854.004	-106.804	854.004	-108.777
		854.004	-108.777	854.004	-108.777
				854.004	-108.777
		855.469	-109.367	855.469	-114.628
		855.469	-114.628	855.469	-114.628
				855.469	-114.628
				856.934	-108.191
				856.934	-108.191
				856.934	-108.191
		858.398	-108.49	858.398	-111.202
		858.398	-111.202	858.398	-111.202
				858.398	-111.202
859.863	-56.8487			859.863	-116.637
859.863	-116.637			859.863	-116.637
				859.863	-116.637
		861.328	-103.322	861.328	-112.594
		861.328	-112.594	861.328	-112.594
				861.328	-112.594
		862.793	-106.932	862.793	-108.33
		862.793	-108.33	862.793	-108.33
				862.793	-108.33
		864.258	-106.062	864.258	-117.706
		864.258	-117.706	864.258	-117.706
				864.258	-117.706
		865.723	-105.987	865.723	-114.498
		865.723	-114.498	865.723	-114.498
				865.723	-114.498
		867.188	-101.047	867.188	-118.236
		867.188	-118.236	867.188	-118.236
				867.188	-118.236
				868.652	-107.617
				868.652	-107.617
				868.652	-107.617
		870.117	-99.9396	870.117	-109.761
		870.117	-109.761	870.117	-109.761
				870.117	-109.761
		871.582	-106.807	871.582	-110.917
		871.582	-110.917	871.582	-110.917
				871.582	-110.917
		873.047	-113.19	873.047	-120.292
		873.047	-120.292	873.047	-120.292
				873.047	-120.292
		874.512	-102.759	874.512	-120.551
		874.512	-120.551	874.512	-120.551
				874.512	-120.551
		875.977	-101.76	875.977	-112.092
		875.977	-112.092	875.977	-112.092
				875.977	-112.092
		877.441	-102.179	877.441	-112.209
		877.441	-112.209	877.441	-112.209
				877.441	-112.209
				878.906	-108.218
				878.906	-108.218
				878.906	-108.218
		880.371	-102.312	880.371	-114.371
		880.371	-114.371	880.371	-114.371
				880.371	-114.371
		881.836	-106.077	881.836	-109.552
		881.836	-109.552	881.836	-109.552
				881.836	-109.552
		883.301	-109.118	883.301	-111.465
		883.301	-111.465	883.301	-111.465
				883.301	-111.465
884.766	-56.997			884.766	-121.816
884.766	-121.816			884.766	-121.816
				884.766	-121.816
		886.23	-106.208	886.23	-113.209
		886.23	-113.209	886.23	-113.209
				886.23	-113.209
		887.695	-103.419	887.695	-125.542
		887.695	-125.542	887.695	-125.542
				887.695	-125.542
		889.16	-103.4	889.16	-112.945
		889.16	-112.945	889.16	-112.945
				889.16	-112.945
		890.625	-118.912	890.625	-120.646
		890.625	-120.646	890.625	-120.646
				890.625	-120.646
		892.09	-102.778	892.09	-123.075
		892.09	-123.075	892.09	-123.075
				892.09	-123.075
				893.555	-111.716
				893.555	-111.716
				893.555	-111.716
		895.02	-104.314	895.02	-111.189
		895.02	-111.189	895.02	-111.189
				895.02	-111.189
		896.484	-107.549	896.484	-116.693
		896.484	-116.693	896.484	-116.693
				896.484	-116.693
		897.949	-106.132	897.949	-109.003
		897.949	-109.003	897.949	-109.003
				897.949	-109.003
		899.414	-108.146	899.414	-111.762
		899.414	-111.762	899.414	-111.762
				899.414	-111.762
		900.879	-104.686	900.879	-126.834
		900.879	-126.834	900.879	-126.834
				900.879	-126.834
		902.344	-102.006	902.344	-119.185
		902.344	-119.185	902.344	-119.185
				902.344	-119.185
		903.809	-104.9	903.809	-107.837
		903.809	-107.837	903.809	-107.837
				903.809	-107.837
		905.273	-105.279	905.273	-111.912
		905.273	-111.912	905.273	-111.912
				905.273	-111.912
				906.738	-109.054
				906.738	-109.054
				906.738	-109.054
		908.203	-103.919	908.203	-112.331
		908.203	-112.331	908.203	-112.331
				908.203	-112.331
		909.668	-106.587	909.668	-114.327
		909.668	-114.327	909.668	-114.327
				909.668	-114.327
911.133	-57.0599			911.133	-115.385
911.133	-115.385			911.133	-115.385
				911.133	-115.385
		912.598	-103.763	912.598	-115.944
		912.598	-115.944	912.598	-115.944
				912.598	-115.944
		914.063	-107.492	914.063	-123.804
		914.063	-123.804	914.063	-123.804
				914.063	-123.804
		915.527	-102.295	915.527	-108.019
		915.527	-108.019	915.527	-108.019
				915.527	-108.019
		916.992	-102.483	916.992	-109.518
		916.992	-109.518	916.992	-109.518
				916.992	-109.518
		918.457	-104.674	918.457	-117.753
		918.457	-117.753	918.457	-117.753
				918.457	-117.753
		919.922	-104.498	919.922	-113.634
		919.922	-113.634	919.922	-113.634
				919.922	-113.634
				921.387	-112.15
				921.387	-112.15
				921.387	-112.15
				922.852	-109.755
				922.852	-109.755
				922.852	-109.755
		924.316	-105.253	924.316	-115.447
		924.316	-115.447	924.316	-115.447
				924.316	-115.447
		925.781	-112.316	925.781	-120.39
		925.781	-120.39	925.781	-120.39
				925.781	-120.39
		927.246	-104.984	927.246	-121.965
		927.246	-121.965	927.246	-121.965
				927.246	-121.965
		928.711	-110.364	928.711	-112.613
		928.711	-112.613	928.711	-112.613
				928.711	-112.613
		930.176	-107.827	930.176	-112.3
		930.176	-112.3	930.176	-112.3
				930.176	-112.3
		931.641	-111.451	931.641	-114.076
		931.641	-114.076	931.641	-114.076
				931.641	-114.076
		933.105	-112.093	933.105	-113.869
		933.105	-113.869	933.105	-113.869
				933.105	-113.869
		934.57	-109.662	934.57	-110.762
		934.57	-110.762	934.57	-110.762
				934.57	-110.762
		936.035	-106.746	936.035	-111.792
		936.035	-111.792	936.035	-111.792
				936.035	-111.792
937.5	-57.188			937.5	-107.735
937.5	-107.735			937.5	-107.735
				937.5	-107.735
		938.965	-104.245	938.965	-112.315
		938.965	-112.315	938.965	-112.315
				938.965	-112.315
				940.43	-112.065
				940.43	-112.065
				940.43	-112.065
				941.895	-107.58
				941.895	-107.58
				941.895	-107.58
				943.359	-109.887
				943.359	-109.887
				943.359	-109.887
				944.824	-110.055
				944.824	-110.055
				944.824	-110.055
		946.289	-104.359	946.289	-111.875
		946.289	-111.875	946.289	-111.875
				946.289	-111.875
		947.754	-105.442	947.754	-110.834
		947.754	-110.834	947.754	-110.834
				947.754	-110.834
		949.219	-100.205	949.219	-112.51
		949.219	-112.51	949.219	-112.51
				949.219	-112.51
		950.684	-107.814	950.684	-116.885
		950.684	-116.885	950.684	-116.885
				950.684	-116.885
		952.148	-114.284	952.148	-118.276
		952.148	-118.276	952.148	-118.276
				952.148	-118.276
		953.613	-112.787	953.613	-118.276
		953.613	-118.276	953.613	-118.276
				953.613	-118.276
		955.078	-107.771	955.078	-111.883
		955.078	-111.883	955.078	-111.883
				955.078	-111.883
		956.543	-105.082	956.543	-109.996
		956.543	-109.996	956.543	-109.996
				956.543	-109.996
				958.008	-110.964
				958.008	-110.964
				958.008	-110.964
		959.473	-102.348	959.473	-113.584
		959.473	-113.584	959.473	-113.584
				959.473	-113.584
		960.938	-107.037	960.938	-109.617
		960.938	-109.617	960.938	-109.617
				960.938	-109.617
		962.402	-113.291	962.402	-118.361
		962.402	-118.361	962.402	-118.361
				962.402	-118.361
				963.867	-103.369
				963.867	-103.369
				963.867	-103.369
965.332	-57.3004			965.332	-113.2
965.332	-113.2			965.332	-113.2
				965.332	-113.2
		966.797	-108.458	966.797	-112.106
		966.797	-112.106	966.797	-112.106
				966.797	-112.106
		968.262	-105.672	968.262	-111.282
		968.262	-111.282	968.262	-111.282
				968.262	-111.282
		969.727	-104.798	969.727	-109.604
		969.727	-109.604	969.727	-109.604
				969.727	-109.604
		971.191	-106.779	971.191	-118.151
		971.191	-118.151	971.191	-118.151
				971.191	-118.151
		972.656	-110.106	972.656	-113.439
		972.656	-113.439	972.656	-113.439
				972.656	-113.439
		974.121	-116.994	974.121	-119.485
		974.121	-119.485	974.121	-119.485
				974.121	-119.485
				975.586	-109.365
				975.586	-109.365
				975.586	-109.365
		977.051	-106.258	977.051	-107.365
		977.051	-107.365	977.051	-107.365
				977.051	-107.365
		978.516	-108.007	978.516	-109.328
		978.516	-109.328	978.516	-109.328
				978.516	-109.328
		979.98	-106.296	979.98	-122.461
		979.98	-122.461	979.98	-122.461
				979.98	-122.461
		981.445	-112.435	981.445	-117.824
		981.445	-117.824	981.445	-117.824
				981.445	-117.824
				982.91	-108.841
				982.91	-108.841
				982.91	-108.841
				984.375	-108.816
				984.375	-108.816
				984.375	-108.816
		985.84	-105.908	985.84	-119.399
		985.84	-119.399	985.84	-119.399
				985.84	-119.399
		987.305	-105.757	987.305	-118.698
		987.305	-118.698	987.305	-118.698
				987.305	-118.698
		988.77	-109.722	988.77	-113.434
		988.77	-113.434	988.77	-113.434
				988.77	-113.434
		990.234	-104.454	990.234	-108.724
		990.234	-108.724	990.234	-108.724
				990.234	-108.724
		991.699	-110.692	991.699	-120.336
		991.699	-120.336	991.699	-120.336
				991.699	-120.336
993.164	-57.4736			993.164	-111.228
993.164	-111.228			993.164	-111.228
				993.164	-111.228
				994.629	-116.297
				994.629	-116.297
				994.629	-116.297
		996.094	-108.833	996.094	-119.635
		996.094	-119.635	996.094	-119.635
				996.094	-119.635
		997.559	-102.35	997.559	-115.83
		997.559	-115.83	997.559	-115.83
				997.559	-115.83
		999.023	-102.49	999.023	-126.33
		999.023	-126.33	999.023	-126.33
				999.023	-126.33
				1000.49	-114.382
				1000.49	-114.382
				1000.49	-114.382
		1001.95	-105.5	1001.95	-117.528
		1001.95	-117.528	1001.95	-117.528
				1001.95	-117.528
		1003.42	-102.046	1003.42	-117.35
		1003.42	-117.35	1003.42	-117.35
				1003.42	-117.35
		1004.88	-104.862	1004.88	-111.656
		1004.88	-111.656	1004.88	-111.656
				1004.88	-111.656
		1006.35	-102.016	1006.35	-115.703
		1006.35	-115.703	1006.35	-115.703
				1006.35	-115.703
				1007.81	-110.959
				1007.81	-110.959
				1007.81	-110.959
		1009.28	-103.214	1009.28	-108.065
		1009.28	-108.065	1009.28	-108.065
				1009.28	-108.065
		1010.74	-103.24	1010.74	-127.273
		1010.74	-127.273	1010.74	-127.273
				1010.74	-127.273
		1012.21	-118.377	1012.21	-123.204
		1012.21	-123.204	1012.21	-123.204
				1012.21	-123.204
				1013.67	-108.733
				1013.67	-108.733
				1013.67	-108.733
		1015.14	-106.101	1015.14	-113.514
		1015.14	-113.514	1015.14	-113.514
				1015.14	-113.514
		1016.6	-106.856	1016.6	-111.681
		1016.6	-111.681	1016.6	-111.681
				1016.6	-111.681
		1018.07	-104.019	1018.07	-113.906
		1018.07	-113.906	1018.07	-113.906
				1018.07	-113.906
		1019.53	-108.374	1019.53	-113.537
		1019.53	-113.537	1019.53	-113.537
				1019.53	-113.537
		1021	-107.262	1021	-108.806
		1021	-108.806	1021	-108.806
				1021	-108.806
1022.46	-57.6206			1022.46	-118.773
1022.46	-118.773			1022.46	-118.773
				1022.46	-118.773
		1023.93	-102.988	1023.93	-112.033
		1023.93	-112.033	1023.93	-112.033
				1023.93	-112.033
		1025.39	-106.084	1025.39	-118.008
		1025.39	-118.008	1025.39	-118.008
				1025.39	-118.008
		1026.86	-103.916	1026.86	-110.742
		1026.86	-110.742	1026.86	-110.742
				1026.86	-110.742
		1028.32	-108.356	1028.32	-113.66
		1028.32	-113.66	1028.32	-113.66
				1028.32	-113.66
				1029.79	-111.558
				1029.79	-111.558
				1029.79	-111.558
		1031.25	-114.014	1031.25	-116.482
		1031.25	-116.482	1031.25	-116.482
				1031.25	-116.482
		1032.71	-106.697	1032.71	-115.15
		1032.71	-115.15	1032.71	-115.15
				1032.71	-115.15
		1034.18	-101.999	1034.18	-114.275
		1034.18	-114.275	1034.18	-114.275
				1034.18	-114.275
				1035.64	-110.655
				1035.64	-110.655
				1035.64	-110.655
		1037.11	-110.325	1037.11	-115.789
		1037.11	-115.789	1037.11	-115.789
				1037.11	-115.789
		1038.57	-101.929	1038.57	-116.428
		1038.57	-116.428	1038.57	-116.428
				1038.57	-116.428
		1040.04	-102.796	1040.04	-111.508
		1040.04	-111.508	1040.04	-111.508
				1040.04	-111.508
		1041.5	-112.788	1041.5	-115.045
		1041.5	-115.045	1041.5	-115.045
				1041.5	-115.045
		1042.97	-109.636	1042.97	-111.778
		1042.97	-111.778	1042.97	-111.778
				1042.97	-111.778
				1044.43	-111.949
				1044.43	-111.949
				1044.43	-111.949
				1045.9	-111.955
				1045.9	-111.955
				1045.9	-111.955
		1047.36	-111.038	1047.36	-125.994
		1047.36	-125.994	1047.36	-125.994
				1047.36	-125.994
		1048.83	-107.83	1048.83	-115.491
		1048.83	-115.491	1048.83	-115.491
				1048.83	-115.491
		1050.29	-106.368	1050.29	-114.257
		1050.29	-114.257	1050.29	-114.257
				1050.29	-114.257
1051.76	-57.8194			1051.76	-115.021
1051.76	-115.021			1051.76	-115.021
				1051.76	-115.021
		1053.22	-104.634	1053.22	-110.951
		1053.22	-110.951	1053.22	-110.951
				1053.22	-110.951
		1054.69	-106.006	1054.69	-112.061
		1054.69	-112.061	1054.69	-112.061
				1054.69	-112.061
		1056.15	-106.818	1056.15	-109.2
		1056.15	-109.2	1056.15	-109.2
				1056.15	-109.2
				1057.62	-117.165
				1057.62	-117.165
				1057.62	-117.165
				1059.08	-116.882
				1059.08	-116.882
				1059.08	-116.882
		1060.55	-105.17	1060.55	-111.541
		1060.55	-111.541	1060.55	-111.541
				1060.55	-111.541
		1062.01	-108.941	1062.01	-120.284
		1062.01	-120.284	1062.01	-120.284
				1062.01	-120.284
		1063.48	-101.719	1063.48	-125.199
		1063.48	-125.199	1063.48	-125.199
				1063.48	-125.199
				1064.94	-115.955
				1064.94	-115.955
				1064.94	-115.955
		1066.41	-107.777	1066.41	-109.426
		1066.41	-109.426	1066.41	-109.426
				1066.41	-109.426
		1067.87	-104.052	1067.87	-116.181
		1067.87	-116.181	1067.87	-116.181
				1067.87	-116.181
		1069.34	-104.317	1069.34	-109.854
		1069.34	-109.854	1069.34	-109.854
				1069.34	-109.854
		1070.8	-103.499	1070.8	-114.075
		1070.8	-114.075	1070.8	-114.075
				1070.8	-114.075
		1072.27	-103.124	1072.27	-114.868
		1072.27	-114.868	1072.27	-114.868
				1072.27	-114.868
				1073.73	-111.566
				1073.73	-111.566
				1073.73	-111.566
				1075.2	-114.953
				1075.2	-114.953
				1075.2	-114.953
		1076.66	-105.978	1076.66	-112.173
		1076.66	-112.173	1076.66	-112.173
				1076.66	-112.173
				1078.13	-109.706
				1078.13	-109.706
				1078.13	-109.706
		1079.59	-106.541	1079.59	-113.19
		1079.59	-113.19	1079.59	-113.19
				1079.59	-113.19
				1081.05	-112.764
				1081.05	-112.764
				1081.05	-112.764
1082.52	-57.9255			1082.52	-116.01
1082.52	-116.01			1082.52	-116.01
				1082.52	-116.01
		1083.98	-106.725	1083.98	-112.241
		1083.98	-112.241	1083.98	-112.241
				1083.98	-112.241
				1085.45	-117.826
				1085.45	-117.826
				1085.45	-117.826
		1086.91	-112.279	1086.91	-116.786
		1086.91	-116.786	1086.91	-116.786
				1086.91	-116.786
				1088.38	-108.471
				1088.38	-108.471
				1088.38	-108.471
		1089.84	-109.18	1089.84	-115.703
		1089.84	-115.703	1089.84	-115.703
				1089.84	-115.703
		1091.31	-106.574	1091.31	-114.26
		1091.31	-114.26	1091.31	-114.26
				1091.31	-114.26
		1092.77	-109.337	1092.77	-113.526
		1092.77	-113.526	1092.77	-113.526
				1092.77	-113.526
		1094.24	-109.897	1094.24	-120.455
		1094.24	-120.455	1094.24	-120.455
				1094.24	-120.455
		1095.7	-100.746	1095.7	-110.575
		1095.7	-110.575	1095.7	-110.575
				1095.7	-110.575
				1097.17	-107.362
				1097.17	-107.362
				1097.17	-107.362
				1098.63	-107.988
				1098.63	-107.988
				1098.63	-107.988
				1100.1	-111.904
				1100.1	-111.904
				1100.1	-111.904
		1101.56	-109.77	1101.56	-124.849
		1101.56	-124.849	1101.56	-124.849
				1101.56	-124.849
		1103.03	-113.573	1103.03	-118.146
		1103.03	-118.146	1103.03	-118.146
				1103.03	-118.146
		1104.49	-118.645	1104.49	-126.397
		1104.49	-126.397	1104.49	-126.397
				1104.49	-126.397
				1105.96	-113.004
				1105.96	-113.004
				1105.96	-113.004
		1107.42	-102.726	1107.42	-114.819
		1107.42	-114.819	1107.42	-114.819
				1107.42	-114.819
		1108.89	-111.494	1108.89	-119.61
		1108.89	-119.61	1108.89	-119.61
				1108.89	-119.61
		1110.35	-104.824	1110.35	-116.932
		1110.35	-116.932	1110.35	-116.932
				1110.35	-116.932
		1111.82	-108.35	1111.82	-116.374
		1111.82	-116.374	1111.82	-116.374
				1111.82	-116.374
		1113.28	-101.068	1113.28	-109.487
		1113.28	-109.487	1113.28	-109.487
				1113.28	-109.487
1114.75	-57.9555			1114.75	-108.358
1114.75	-108.358			1114.75	-108.358
				1114.75	-108.358
				1116.21	-109.571
				1116.21	-109.571
				1116.21	-109.571
		1117.68	-108.783	1117.68	-118.749
		1117.68	-118.749	1117.68	-118.749
				1117.68	-118.749
		1119.14	-102.331	1119.14	-114.312
		1119.14	-114.312	1119.14	-114.312
				1119.14	-114.312
		1120.61	-110.13	1120.61	-112.596
		1120.61	-112.596	1120.61	-112.596
				1120.61	-112.596
		1122.07	-103.37	1122.07	-112.967
		1122.07	-112.967	1122.07	-112.967
				1122.07	-112.967
		1123.54	-108.587	1123.54	-120.527
		1123.54	-120.527	1123.54	-120.527
				1123.54	-120.527
		1125	-117.558	1125	-124.645
		1125	-124.645	1125	-124.645
				1125	-124.645
				1126.46	-108.66
				1126.46	-108.66
				1126.46	-108.66
		1127.93	-101.404	1127.93	-111.401
		1127.93	-111.401	1127.93	-111.401
				1127.93	-111.401
				1129.39	-109.331
				1129.39	-109.331
				1129.39	-109.331
		1130.86	-106.781	1130.86	-118.8
		1130.86	-118.8	1130.86	-118.8
				1130.86	-118.8
		1132.32	-100.672	1132.32	-111.217
		1132.32	-111.217	1132.32	-111.217
				1132.32	-111.217
		1133.79	-109.959	1133.79	-118.697
		1133.79	-118.697	1133.79	-118.697
				1133.79	-118.697
				1135.25	-106.991
				1135.25	-106.991
				1135.25	-106.991
		1136.72	-104.162	1136.72	-111.184
		1136.72	-111.184	1136.72	-111.184
				1136.72	-111.184
		1138.18	-107.462	1138.18	-114.25
		1138.18	-114.25	1138.18	-114.25
				1138.18	-114.25
				1139.65	-110.134
				1139.65	-110.134
				1139.65	-110.134
		1141.11	-105.512	1141.11	-118.52
		1141.11	-118.52	1141.11	-118.52
				1141.11	-118.52
				1142.58	-118.165
				1142.58	-118.165
				1142.58	-118.165
				1144.04	-115.705
				1144.04	-115.705
				1144.04	-115.705
		1145.51	-101.631	1145.51	-112.152
		1145.51	-112.152	1145.51	-112.152
				1145.51	-112.152
1146.97	-57.9425			1146.97	-109.242
1146.97	-109.242			1146.97	-109.242
				1146.97	-109.242
				1148.44	-109.532
				1148.44	-109.532
				1148.44	-109.532
				1149.9	-130.249
				1149.9	-130.249
				1149.9	-130.249
		1151.37	-104.744	1151.37	-118.267
		1151.37	-118.267	1151.37	-118.267
				1151.37	-118.267
		1152.83	-101.794	1152.83	-122.85
		1152.83	-122.85	1152.83	-122.85
				1152.83	-122.85
		1154.3	-106.921	1154.3	-114.591
		1154.3	-114.591	1154.3	-114.591
				1154.3	-114.591
		1155.76	-109.489	1155.76	-118.809
		1155.76	-118.809	1155.76	-118.809
				1155.76	-118.809
		1157.23	-105.821	1157.23	-119.288
		1157.23	-119.288	1157.23	-119.288
				1157.23	-119.288
		1158.69	-107.723	1158.69	-111.823
		1158.69	-111.823	1158.69	-111.823
				1158.69	-111.823
		1160.16	-108.055	1160.16	-121.438
		1160.16	-121.438	1160.16	-121.438
				1160.16	-121.438
		1161.62	-100.897	1161.62	-119.52
		1161.62	-119.52	1161.62	-119.52
				1161.62	-119.52
		1163.09	-107.455	1163.09	-110.708
		1163.09	-110.708	1163.09	-110.708
				1163.09	-110.708
				1164.55	-114.053
				1164.55	-114.053
				1164.55	-114.053
				1166.02	-107.269
				1166.02	-107.269
				1166.02	-107.269
				1167.48	-105.125
				1167.48	-105.125
				1167.48	-105.125
		1168.95	-111.963	1168.95	-114.878
		1168.95	-114.878	1168.95	-114.878
				1168.95	-114.878
		1170.41	-102.248	1170.41	-118.663
		1170.41	-118.663	1170.41	-118.663
				1170.41	-118.663
		1171.88	-107.767	1171.88	-123.878
		1171.88	-123.878	1171.88	-123.878
				1171.88	-123.878
				1173.34	-112.079
				1173.34	-112.079
				1173.34	-112.079
		1174.8	-108.701	1174.8	-114.727
		1174.8	-114.727	1174.8	-114.727
				1174.8	-114.727
		1176.27	-105.229	1176.27	-110.676
		1176.27	-110.676	1176.27	-110.676
				1176.27	-110.676
		1177.73	-105.731	1177.73	-116.647
		1177.73	-116.647	1177.73	-116.647
				1177.73	-116.647
				1179.2	-115.814
				1179.2	-115.814
				1179.2	-115.814
1180.66	-57.8792			1180.66	-116.241
1180.66	-116.241			1180.66	-116.241
				1180.66	-116.241
				1182.13	-112.166
				1182.13	-112.166
				1182.13	-112.166
		1183.59	-107.237	1183.59	-109.777
		1183.59	-109.777	1183.59	-109.777
				1183.59	-109.777
		1185.06	-111.556	1185.06	-115.311
		1185.06	-115.311	1185.06	-115.311
				1185.06	-115.311
				1186.52	-110.887
				1186.52	-110.887
				1186.52	-110.887
				1187.99	-113.04
				1187.99	-113.04
				1187.99	-113.04
		1189.45	-107.533	1189.45	-118.017
		1189.45	-118.017	1189.45	-118.017
				1189.45	-118.017
				1190.92	-112.87
				1190.92	-112.87
				1190.92	-112.87
		1192.38	-109.374	1192.38	-119.142
		1192.38	-119.142	1192.38	-119.142
				1192.38	-119.142
		1193.85	-103.502	1193.85	-105.316
		1193.85	-105.316	1193.85	-105.316
				1193.85	-105.316
		1195.31	-109.844	1195.31	-112.716
		1195.31	-112.716	1195.31	-112.716
				1195.31	-112.716
		1196.78	-108.421	1196.78	-113.66
		1196.78	-113.66	1196.78	-113.66
				1196.78	-113.66
		1198.24	-115.307	1198.24	-120.949
		1198.24	-120.949	1198.24	-120.949
				1198.24	-120.949
				1199.71	-107.326
				1199.71	-107.326
				1199.71	-107.326
				1201.17	-108.467
				1201.17	-108.467
				1201.17	-108.467
				1202.64	-117.804
				1202.64	-117.804
				1202.64	-117.804
		1204.1	-108.087	1204.1	-113.607
		1204.1	-113.607	1204.1	-113.607
				1204.1	-113.607
		1205.57	-108.397	1205.57	-109.588
		1205.57	-109.588	1205.57	-109.588
				1205.57	-109.588
		1207.03	-101.591	1207.03	-117.674
		1207.03	-117.674	1207.03	-117.674
				1207.03	-117.674
		1208.5	-100.879	1208.5	-116.427
		1208.5	-116.427	1208.5	-116.427
				1208.5	-116.427
		1209.96	-111.724	1209.96	-122.309
		1209.96	-122.309	1209.96	-122.309
				1209.96	-122.309
		1211.43	-103.943	1211.43	-110.712
		1211.43	-110.712	1211.43	-110.712
				1211.43	-110.712
		1212.89	-99.4096	1212.89	-122.173
		1212.89	-122.173	1212.89	-122.173
				1212.89	-122.173
		1214.36	-102.974	1214.36	-116.602
		1214.36	-116.602	1214.36	-116.602
				1214.36	-116.602
1215.82	-57.829			1215.82	-110.671
1215.82	-110.671			1215.82	-110.671
				1215.82	-110.671
		1217.29	-113.837	1217.29	-118.884
		1217.29	-118.884	1217.29	-118.884
				1217.29	-118.884
		1218.75	-107.888	1218.75	-111.493
		1218.75	-111.493	1218.75	-111.493
				1218.75	-111.493
		1220.21	-102.252	1220.21	-114.463
		1220.21	-114.463	1220.21	-114.463
				1220.21	-114.463
		1221.68	-101.79	1221.68	-113.971
		1221.68	-113.971	1221.68	-113.971
				1221.68	-113.971
				1223.14	-113.48
				1223.14	-113.48
				1223.14	-113.48
				1224.61	-108.439
				1224.61	-108.439
				1224.61	-108.439
				1226.07	-114.737
				1226.07	-114.737
				1226.07	-114.737
		1227.54	-103.751	1227.54	-112.149
		1227.54	-112.149	1227.54	-112.149
				1227.54	-112.149
				1229	-110.276
				1229	-110.276
				1229	-110.276
				1230.47	-107.973
				1230.47	-107.973
				1230.47	-107.973
		1231.93	-104.949	1231.93	-127.862
		1231.93	-127.862	1231.93	-127.862
				1231.93	-127.862
		1233.4	-110.966	1233.4	-112.688
		1233.4	-112.688	1233.4	-112.688
				1233.4	-112.688
		1234.86	-104.101	1234.86	-109.963
		1234.86	-109.963	1234.86	-109.963
				1234.86	-109.963
		1236.33	-114.82	1236.33	-129.166
		1236.33	-129.166	1236.33	-129.166
				1236.33	-129.166
		1237.79	-106.943	1237.79	-131.014
		1237.79	-131.014	1237.79	-131.014
				1237.79	-131.014
		1239.26	-104.923	1239.26	-112.186
		1239.26	-112.186	1239.26	-112.186
				1239.26	-112.186
		1240.72	-102.856	1240.72	-124.281
		1240.72	-124.281	1240.72	-124.281
				1240.72	-124.281
				1242.19	-111.965
				1242.19	-111.965
				1242.19	-111.965
		1243.65	-106.084	1243.65	-109.885
		1243.65	-109.885	1243.65	-109.885
				1243.65	-109.885
		1245.12	-105.523	1245.12	-121.869
		1245.12	-121.869	1245.12	-121.869
				1245.12	-121.869
		1246.58	-104.868	1246.58	-110.119
		1246.58	-110.119	1246.58	-110.119
				1246.58	-110.119
		1248.05	-99.962	1248.05	-116.15
		1248.05	-116.15	1248.05	-116.15
				1248.05	-116.15
				1249.51	-118.3
				1249.51	-118.3
				1249.51	-118.3
1250.98	-57.8745			1250.98	-114.292
1250.98	-114.292			1250.98	-114.292
				1250.98	-114.292
		1252.44	-106.481	1252.44	-109.035
		1252.44	-109.035	1252.44	-109.035
				1252.44	-109.035
		1253.91	-106.398	1253.91	-120.407
		1253.91	-120.407	1253.91	-120.407
				1253.91	-120.407
		1255.37	-107.942	1255.37	-113.793
		1255.37	-113.793	1255.37	-113.793
				1255.37	-113.793
		1256.84	-107.662	1256.84	-114.626
		1256.84	-114.626	1256.84	-114.626
				1256.84	-114.626
		1258.3	-105.744	1258.3	-108.849
		1258.3	-108.849	1258.3	-108.849
				1258.3	-108.849
		1259.77	-104.541	1259.77	-111.237
		1259.77	-111.237	1259.77	-111.237
				1259.77	-111.237
		1261.23	-107.379	1261.23	-110.888
		1261.23	-110.888	1261.23	-110.888
				1261.23	-110.888
		1262.7	-111.572	1262.7	-121.014
		1262.7	-121.014	1262.7	-121.014
				1262.7	-121.014
		1264.16	-109.006	1264.16	-112.681
		1264.16	-112.681	1264.16	-112.681
				1264.16	-112.681
		1265.63	-109.487	1265.63	-115.993
		1265.63	-115.993	1265.63	-115.993
				1265.63	-115.993
		1267.09	-111.272	1267.09	-131.034
		1267.09	-131.034	1267.09	-131.034
				1267.09	-131.034
				1268.55	-116.361
				1268.55	-116.361
				1268.55	-116.361
		1270.02	-113.927	1270.02	-116.413
		1270.02	-116.413	1270.02	-116.413
				1270.02	-116.413
		1271.48	-112.061	1271.48	-114.992
		1271.48	-114.992	1271.48	-114.992
				1271.48	-114.992
		1272.95	-116.121	1272.95	-117.395
		1272.95	-117.395	1272.95	-117.395
				1272.95	-117.395
		1274.41	-103.08	1274.41	-110.135
		1274.41	-110.135	1274.41	-110.135
				1274.41	-110.135
		1275.88	-106.545	1275.88	-111.185
		1275.88	-111.185	1275.88	-111.185
				1275.88	-111.185
		1277.34	-100.107	1277.34	-131.477
		1277.34	-131.477	1277.34	-131.477
				1277.34	-131.477
		1278.81	-107.091	1278.81	-117.123
		1278.81	-117.123	1278.81	-117.123
				1278.81	-117.123
				1280.27	-112.685
				1280.27	-112.685
				1280.27	-112.685
				1281.74	-111.304
				1281.74	-111.304
				1281.74	-111.304
				1283.2	-107.142
				1283.2	-107.142
				1283.2	-107.142
		1284.67	-102.661	1284.67	-114.996
		1284.67	-114.996	1284.67	-114.996
				1284.67	-114.996
		1286.13	-102.971	1286.13	-112.349
		1286.13	-112.349	1286.13	-112.349
				1286.13	-112.349
1287.6	-57.9467			1287.6	-108.822
1287.6	-108.822			1287.6	-108.822
				1287.6	-108.822
		1289.06	-111.039	1289.06	-114.369
		1289.06	-114.369	1289.06	-114.369
				1289.06	-114.369
				1290.53	-116.08
				1290.53	-116.08
				1290.53	-116.08
		1291.99	-109.833	1291.99	-125.18
		1291.99	-125.18	1291.99	-125.18
				1291.99	-125.18
		1293.46	-112.031	1293.46	-120.166
		1293.46	-120.166	1293.46	-120.166
				1293.46	-120.166
		1294.92	-113.792	1294.92	-115.13
		1294.92	-115.13	1294.92	-115.13
				1294.92	-115.13
		1296.39	-108.091	1296.39	-114.076
		1296.39	-114.076	1296.39	-114.076
				1296.39	-114.076
		1297.85	-111.439	1297.85	-113.737
		1297.85	-113.737	1297.85	-113.737
				1297.85	-113.737
		1299.32	-109.733	1299.32	-113.736
		1299.32	-113.736	1299.32	-113.736
				1299.32	-113.736
				1300.78	-110.981
				1300.78	-110.981
				1300.78	-110.981
				1302.25	-110.579
				1302.25	-110.579
				1302.25	-110.579
		1303.71	-106.843	1303.71	-111.273
		1303.71	-111.273	1303.71	-111.273
				1303.71	-111.273
		1305.18	-105.22	1305.18	-110.299
		1305.18	-110.299	1305.18	-110.299
				1305.18	-110.299
		1306.64	-107.528	1306.64	-113.659
		1306.64	-113.659	1306.64	-113.659
				1306.64	-113.659
		1308.11	-107.638	1308.11	-113.704
		1308.11	-113.704	1308.11	-113.704
				1308.11	-113.704
				1309.57	-110.858
				1309.57	-110.858
				1309.57	-110.858
		1311.04	-107.753	1311.04	-115.766
		1311.04	-115.766	1311.04	-115.766
				1311.04	-115.766
		1312.5	-100.696	1312.5	-122.987
		1312.5	-122.987	1312.5	-122.987
				1312.5	-122.987
		1313.96	-112.099	1313.96	-116.229
		1313.96	-116.229	1313.96	-116.229
				1313.96	-116.229
		1315.43	-109.135	1315.43	-114.072
		1315.43	-114.072	1315.43	-114.072
				1315.43	-114.072
		1316.89	-105.424	1316.89	-116.576
		1316.89	-116.576	1316.89	-116.576
				1316.89	-116.576
		1318.36	-103.08	1318.36	-114.596
		1318.36	-114.596	1318.36	-114.596
				1318.36	-114.596
		1319.82	-103.514	1319.82	-115.047
		1319.82	-115.047	1319.82	-115.047
				1319.82	-115.047
		1321.29	-102.512	1321.29	-112.288
		1321.29	-112.288	1321.29	-112.288
				1321.29	-112.288
		1322.75	-105.89	1322.75	-110.033
		1322.75	-110.033	1322.75	-110.033
				1322.75	-110.033
		1324.22	-103.008	1324.22	-109.218
		1324.22	-109.218	1324.22	-109.218
				1324.22	-109.218
1325.68	-57.9742			1325.68	-124.725
1325.68	-124.725			1325.68	-124.725
				1325.68	-124.725
		1327.15	-104.618	1327.15	-109.193
		1327.15	-109.193	1327.15	-109.193
				1327.15	-109.193
		1328.61	-106.394	1328.61	-110.749
		1328.61	-110.749	1328.61	-110.749
				1328.61	-110.749
		1330.08	-105.725	1330.08	-121.333
		1330.08	-121.333	1330.08	-121.333
				1330.08	-121.333
		1331.54	-114.484	1331.54	-120.267
		1331.54	-120.267	1331.54	-120.267
				1331.54	-120.267
		1333.01	-107.131	1333.01	-114.733
		1333.01	-114.733	1333.01	-114.733
				1333.01	-114.733
		1334.47	-105.561	1334.47	-108.043
		1334.47	-108.043	1334.47	-108.043
				1334.47	-108.043
		1335.94	-110.243	1335.94	-116.846
		1335.94	-116.846	1335.94	-116.846
				1335.94	-116.846
				1337.4	-111.738
				1337.4	-111.738
				1337.4	-111.738
		1338.87	-103.346	1338.87	-132.794
		1338.87	-132.794	1338.87	-132.794
				1338.87	-132.794
		1340.33	-103.619	1340.33	-109.037
		1340.33	-109.037	1340.33	-109.037
				1340.33	-109.037
		1341.8	-104.433	1341.8	-122.967
		1341.8	-122.967	1341.8	-122.967
				1341.8	-122.967
		1343.26	-103.202	1343.26	-110.869
		1343.26	-110.869	1343.26	-110.869
				1343.26	-110.869
		1344.73	-104.89	1344.73	-107.887
		1344.73	-107.887	1344.73	-107.887
				1344.73	-107.887
		1346.19	-109.438	1346.19	-118.674
		1346.19	-118.674	1346.19	-118.674
				1346.19	-118.674
		1347.66	-103.757	1347.66	-105.633
		1347.66	-105.633	1347.66	-105.633
				1347.66	-105.633
		1349.12	-109.436	1349.12	-118.466
		1349.12	-118.466	1349.12	-118.466
				1349.12	-118.466
		1350.59	-102.689	1350.59	-110.769
		1350.59	-110.769	1350.59	-110.769
				1350.59	-110.769
				1352.05	-107.14
				1352.05	-107.14
				1352.05	-107.14
		1353.52	-102.836	1353.52	-114.667
		1353.52	-114.667	1353.52	-114.667
				1353.52	-114.667
		1354.98	-105.822	1354.98	-107.321
		1354.98	-107.321	1354.98	-107.321
				1354.98	-107.321
		1356.45	-106.652	1356.45	-131.07
		1356.45	-131.07	1356.45	-131.07
				1356.45	-131.07
		1357.91	-104.735	1357.91	-111.709
		1357.91	-111.709	1357.91	-111.709
				1357.91	-111.709
		1359.38	-108.497	1359.38	-112.297
		1359.38	-112.297	1359.38	-112.297
				1359.38	-112.297
		1360.84	-105.565	1360.84	-112.593
		1360.84	-112.593	1360.84	-112.593
				1360.84	-112.593
		1362.3	-108.762	1362.3	-115.426
		1362.3	-115.426	1362.3	-115.426
				1362.3	-115.426
				1363.77	-106.082
				1363.77	-106.082
				1363.77	-106.082
1365.23	-58.0653			1365.23	-113.946
1365.23	-113.946			1365.23	-113.946
				1365.23	-113.946
		1366.7	-107.286	1366.7	-117.817
		1366.7	-117.817	1366.7	-117.817
				1366.7	-117.817
		1368.16	-106.802	1368.16	-110.483
		1368.16	-110.483	1368.16	-110.483
				1368.16	-110.483
		1369.63	-105.212	1369.63	-110.968
		1369.63	-110.968	1369.63	-110.968
				1369.63	-110.968
		1371.09	-106.716	1371.09	-125.315
		1371.09	-125.315	1371.09	-125.315
				1371.09	-125.315
				1372.56	-113.825
				1372.56	-113.825
				1372.56	-113.825
		1374.02	-107.14	1374.02	-118.338
		1374.02	-118.338	1374.02	-118.338
				1374.02	-118.338
				1375.49	-109.639
				1375.49	-109.639
				1375.49	-109.639
				1376.95	-109.795
				1376.95	-109.795
				1376.95	-109.795
		1378.42	-109.325	1378.42	-112.104
		1378.42	-112.104	1378.42	-112.104
				1378.42	-112.104
		1379.88	-108.458	1379.88	-109.657
		1379.88	-109.657	1379.88	-109.657
				1379.88	-109.657
		1381.35	-104.4	1381.35	-122.506
		1381.35	-122.506	1381.35	-122.506
				1381.35	-122.506
				1382.81	-111.052
				1382.81	-111.052
				1382.81	-111.052
		1384.28	-103.654	1384.28	-108.109
		1384.28	-108.109	1384.28	-108.109
				1384.28	-108.109
				1385.74	-101.444
				1385.74	-101.444
				1385.74	-101.444
				1387.21	-111.301
				1387.21	-111.301
				1387.21	-111.301
				1388.67	-111.282
				1388.67	-111.282
				1388.67	-111.282
				1390.14	-116.054
				1390.14	-116.054
				1390.14	-116.054
		1391.6	-105.878	1391.6	-114.866
		1391.6	-114.866	1391.6	-114.866
				1391.6	-114.866
		1393.07	-116.533	1393.07	-119.83
		1393.07	-119.83	1393.07	-119.83
				1393.07	-119.83
		1394.53	-104.671	1394.53	-114.609
		1394.53	-114.609	1394.53	-114.609
				1394.53	-114.609
				1396	-109.798
				1396	-109.798
				1396	-109.798
		1397.46	-109.762	1397.46	-111.204
		1397.46	-111.204	1397.46	-111.204
				1397.46	-111.204
		1398.93	-102.681	1398.93	-119.627
		1398.93	-119.627	1398.93	-119.627
				1398.93	-119.627
		1400.39	-105.513	1400.39	-109.75
		1400.39	-109.75	1400.39	-109.75
				1400.39	-109.75
		1401.86	-107.543	1401.86	-114.492
		1401.86	-114.492	1401.86	-114.492
				1401.86	-114.492
		1403.32	-109.492	1403.32	-116.235
		1403.32	-116.235	1403.32	-116.235
				1403.32	-116.235
1404.79	-58.1455			1404.79	-116.202
1404.79	-116.202			1404.79	-116.202
				1404.79	-116.202
		1406.25	-107.733	1406.25	-118.39
		1406.25	-118.39	1406.25	-118.39
				1406.25	-118.39
		1407.71	-104.343	1407.71	-114.096
		1407.71	-114.096	1407.71	-114.096
				1407.71	-114.096
		1409.18	-104.415	1409.18	-107.822
		1409.18	-107.822	1409.18	-107.822
				1409.18	-107.822
		1410.64	-107.685	1410.64	-113.667
		1410.64	-113.667	1410.64	-113.667
				1410.64	-113.667
		1412.11	-104.172	1412.11	-119.652
		1412.11	-119.652	1412.11	-119.652
				1412.11	-119.652
				1413.57	-109.156
				1413.57	-109.156
				1413.57	-109.156
		1415.04	-108.629	1415.04	-110.293
		1415.04	-110.293	1415.04	-110.293
				1415.04	-110.293
		1416.5	-106.381	1416.5	-117.327
		1416.5	-117.327	1416.5	-117.327
				1416.5	-117.327
		1417.97	-114.666	1417.97	-116.989
		1417.97	-116.989	1417.97	-116.989
				1417.97	-116.989
				1419.43	-109.545
				1419.43	-109.545
				1419.43	-109.545
		1420.9	-114.364	1420.9	-119.144
		1420.9	-119.144	1420.9	-119.144
				1420.9	-119.144
		1422.36	-110.487	1422.36	-114.988
		1422.36	-114.988	1422.36	-114.988
				1422.36	-114.988
				1423.83	-107.439
				1423.83	-107.439
				1423.83	-107.439
		1425.29	-106.825	1425.29	-115.711
		1425.29	-115.711	1425.29	-115.711
				1425.29	-115.711
		1426.76	-109.657	1426.76	-113.808
		1426.76	-113.808	1426.76	-113.808
				1426.76	-113.808
		1428.22	-102.515	1428.22	-115.326
		1428.22	-115.326	1428.22	-115.326
				1428.22	-115.326
		1429.69	-104.729	1429.69	-111.209
		1429.69	-111.209	1429.69	-111.209
				1429.69	-111.209
		1431.15	-107.017	1431.15	-114.261
		1431.15	-114.261	1431.15	-114.261
				1431.15	-114.261
		1432.62	-103.253	1432.62	-116.011
		1432.62	-116.011	1432.62	-116.011
				1432.62	-116.011
		1434.08	-106.651	1434.08	-122.081
		1434.08	-122.081	1434.08	-122.081
				1434.08	-122.081
				1435.55	-110.503
				1435.55	-110.503
				1435.55	-110.503
		1437.01	-105.494	1437.01	-110.572
		1437.01	-110.572	1437.01	-110.572
				1437.01	-110.572
		1438.48	-115.506	1438.48	-119.419
		1438.48	-119.419	1438.48	-119.419
				1438.48	-119.419
		1439.94	-103.48	1439.94	-124.374
		1439.94	-124.374	1439.94	-124.374
				1439.94	-124.374
		1441.41	-118.802	1441.41	-125.235
		1441.41	-125.235	1441.41	-125.235
				1441.41	-125.235
		1442.87	-109.037	1442.87	-113.64
		1442.87	-113.64	1442.87	-113.64
				1442.87	-113.64
		1444.34	-111.661	1444.34	-112.962
		1444.34	-112.962	1444.34	-112.962
				1444.34	-112.962
1445.8	-58.1757			1445.8	-112.994
1445.8	-112.994			1445.8	-112.994
				1445.8	-112.994
		1447.27	-105.944	1447.27	-111.654
		1447.27	-111.654	1447.27	-111.654
				1447.27	-111.654
				1448.73	-109.652
				1448.73	-109.652
				1448.73	-109.652
		1450.2	-114.167	1450.2	-118.016
		1450.2	-118.016	1450.2	-118.016
				1450.2	-118.016
		1451.66	-102.512	1451.66	-120.28
		1451.66	-120.28	1451.66	-120.28
				1451.66	-120.28
		1453.13	-105.428	1453.13	-122.602
		1453.13	-122.602	1453.13	-122.602
				1453.13	-122.602
		1454.59	-104.728	1454.59	-107.205
		1454.59	-107.205	1454.59	-107.205
				1454.59	-107.205
		1456.05	-114.98	1456.05	-120.074
		1456.05	-120.074	1456.05	-120.074
				1456.05	-120.074
				1457.52	-110.104
				1457.52	-110.104
				1457.52	-110.104
				1458.98	-107.36
				1458.98	-107.36
				1458.98	-107.36
		1460.45	-104.255	1460.45	-111.045
		1460.45	-111.045	1460.45	-111.045
				1460.45	-111.045
				1461.91	-108.595
				1461.91	-108.595
				1461.91	-108.595
				1463.38	-107.357
				1463.38	-107.357
				1463.38	-107.357
		1464.84	-102.369	1464.84	-115.851
		1464.84	-115.851	1464.84	-115.851
				1464.84	-115.851
		1466.31	-104.889	1466.31	-108.688
		1466.31	-108.688	1466.31	-108.688
				1466.31	-108.688
				1467.77	-112.676
				1467.77	-112.676
				1467.77	-112.676
				1469.24	-107.461
				1469.24	-107.461
				1469.24	-107.461
		1470.7	-114.894	1470.7	-123.843
		1470.7	-123.843	1470.7	-123.843
				1470.7	-123.843
		1472.17	-116.611	1472.17	-118.101
		1472.17	-118.101	1472.17	-118.101
				1472.17	-118.101
		1473.63	-102.766	1473.63	-119.425
		1473.63	-119.425	1473.63	-119.425
				1473.63	-119.425
				1475.1	-111.29
				1475.1	-111.29
				1475.1	-111.29
				1476.56	-113.403
				1476.56	-113.403
				1476.56	-113.403
				1478.03	-106.437
				1478.03	-106.437
				1478.03	-106.437
				1479.49	-109.489
				1479.49	-109.489
				1479.49	-109.489
		1480.96	-101.47	1480.96	-113.656
		1480.96	-113.656	1480.96	-113.656
				1480.96	-113.656
				1482.42	-108.835
				1482.42	-108.835
				1482.42	-108.835
		1483.89	-110.766	1483.89	-115.815
		1483.89	-115.815	1483.89	-115.815
				1483.89	-115.815
		1485.35	-107.109	1485.35	-113.885
		1485.35	-113.885	1485.35	-113.885
				1485.35	-113.885
				1486.82	-109.082
				1486.82	-109.082
				1486.82	-109.082
1488.28	-58.3399			1488.28	-109.621
1488.28	-109.621			1488.28	-109.621
				1488.28	-109.621
		1489.75	-108.139	1489.75	-113.679
		1489.75	-113.679	1489.75	-113.679
				1489.75	-113.679
				1491.21	-110.543
				1491.21	-110.543
				1491.21	-110.543
		1492.68	-111.136	1492.68	-114.363
		1492.68	-114.363	1492.68	-114.363
				1492.68	-114.363
				1494.14	-120.383
				1494.14	-120.383
				1494.14	-120.383
				1495.61	-112.519
				1495.61	-112.519
				1495.61	-112.519
		1497.07	-104.895	1497.07	-109.836
		1497.07	-109.836	1497.07	-109.836
				1497.07	-109.836
		1498.54	-105.816	1498.54	-110.611
		1498.54	-110.611	1498.54	-110.611
				1498.54	-110.611
		1500	-101.476	1500	-111.269
		1500	-111.269	1500	-111.269
				1500	-111.269
		1501.46	-103.892	1501.46	-114.918
		1501.46	-114.918	1501.46	-114.918
				1501.46	-114.918
				1502.93	-105.982
				1502.93	-105.982
				1502.93	-105.982
		1504.39	-105.037	1504.39	-117.785
		1504.39	-117.785	1504.39	-117.785
				1504.39	-117.785
		1505.86	-107.835	1505.86	-123.632
		1505.86	-123.632	1505.86	-123.632
				1505.86	-123.632
		1507.32	-103.26	1507.32	-106.135
		1507.32	-106.135	1507.32	-106.135
				1507.32	-106.135
				1508.79	-113.162
				1508.79	-113.162
				1508.79	-113.162
		1510.25	-102.037	1510.25	-114.875
		1510.25	-114.875	1510.25	-114.875
				1510.25	-114.875
				1511.72	-112.422
				1511.72	-112.422
				1511.72	-112.422
		1513.18	-106.623	1513.18	-114.112
		1513.18	-114.112	1513.18	-114.112
				1513.18	-114.112
		1514.65	-111.207	1514.65	-114.821
		1514.65	-114.821	1514.65	-114.821
				1514.65	-114.821
				1516.11	-109.062
				1516.11	-109.062
				1516.11	-109.062
		1517.58	-109.303	1517.58	-113.462
		1517.58	-113.462	1517.58	-113.462
				1517.58	-113.462
		1519.04	-107.566	1519.04	-114.312
		1519.04	-114.312	1519.04	-114.312
				1519.04	-114.312
		1520.51	-105.779	1520.51	-122.659
		1520.51	-122.659	1520.51	-122.659
				1520.51	-122.659
		1521.97	-100.877	1521.97	-110.375
		1521.97	-110.375	1521.97	-110.375
				1521.97	-110.375
		1523.44	-110.836	1523.44	-119.274
		1523.44	-119.274	1523.44	-119.274
				1523.44	-119.274
				1524.9	-109.696
				1524.9	-109.696
				1524.9	-109.696
		1526.37	-107.302	1526.37	-126.71
		1526.37	-126.71	1526.37	-126.71
				1526.37	-126.71
		1527.83	-107.619	1527.83	-115.048
		1527.83	-115.048	1527.83	-115.048
				1527.83	-115.048
				1529.3	-112.786
				1529.3	-112.786
				1529.3	-112.786
		1530.76	-110.146	1530.76	-113.362
		1530.76	-113.362	1530.76	-113.362
				1530.76	-113.362
1532.23	-58.3963			1532.23	-114.035
1532.23	-114.035			1532.23	-114.035
				1532.23	-114.035
		1533.69	-109.126	1533.69	-122.562
		1533.69	-122.562	1533.69	-122.562
				1533.69	-122.562
				1535.16	-110.991
				1535.16	-110.991
				1535.16	-110.991
		1536.62	-109.906	1536.62	-115.089
		1536.62	-115.089	1536.62	-115.089
				1536.62	-115.089
		1538.09	-106.648	1538.09	-127.839
		1538.09	-127.839	1538.09	-127.839
				1538.09	-127.839
		1539.55	-104.381	1539.55	-108.532
		1539.55	-108.532	1539.55	-108.532
				1539.55	-108.532
				1541.02	-115.582
				1541.02	-115.582
				1541.02	-115.582
				1542.48	-108.999
				1542.48	-108.999
				1542.48	-108.999
		1543.95	-101.228	1543.95	-119.164
		1543.95	-119.164	1543.95	-119.164
				1543.95	-119.164
				1545.41	-111.382
				1545.41	-111.382
				1545.41	-111.382
		1546.88	-103.595	1546.88	-118.205
		1546.88	-118.205	1546.88	-118.205
				1546.88	-118.205
		1548.34	-103.236	1548.34	-120.124
		1548.34	-120.124	1548.34	-120.124
				1548.34	-120.124
				1549.8	-109.41
				1549.8	-109.41
				1549.8	-109.41
		1551.27	-103.443	1551.27	-106.933
		1551.27	-106.933	1551.27	-106.933
				1551.27	-106.933
		1552.73	-102.883	1552.73	-119.893
		1552.73	-119.893	1552.73	-119.893
				1552.73	-119.893
		1554.2	-106.635	1554.2	-113.298
		1554.2	-113.298	1554.2	-113.298
				1554.2	-113.298
				1555.66	-107.351
				1555.66	-107.351
				1555.66	-107.351
		1557.13	-108.929	1557.13	-117.402
		1557.13	-117.402	1557.13	-117.402
				1557.13	-117.402
		1558.59	-102.253	1558.59	-114.191
		1558.59	-114.191	1558.59	-114.191
				1558.59	-114.191
		1560.06	-105.179	1560.06	-108.981
		1560.06	-108.981	1560.06	-108.981
				1560.06	-108.981
		1561.52	-111.991	1561.52	-119.926
		1561.52	-119.926	1561.52	-119.926
				1561.52	-119.926
		1562.99	-104.903	1562.99	-113.119
		1562.99	-113.119	1562.99	-113.119
				1562.99	-113.119
				1564.45	-110.841
				1564.45	-110.841
				1564.45	-110.841
				1565.92	-114.652
				1565.92	-114.652
				1565.92	-114.652
				1567.38	-110.765
				1567.38	-110.765
				1567.38	-110.765
				1568.85	-108.109
				1568.85	-108.109
				1568.85	-108.109
		1570.31	-102.21	1570.31	-114.042
		1570.31	-114.042	1570.31	-114.042
				1570.31	-114.042
				1571.78	-111.726
				1571.78	-111.726
				1571.78	-111.726
		1573.24	-112.441	1573.24	-131.386
		1573.24	-131.386	1573.24	-131.386
				1573.24	-131.386
				1574.71	-106.028
				1574.71	-106.028
				1574.71	-106.028
1576.17	-58.471			1576.17	-112.226
1576.17	-112.226			1576.17	-112.226
				1576.17	-112.226
		1577.64	-109.573	1577.64	-111.138
		1577.64	-111.138	1577.64	-111.138
				1577.64	-111.138
		1579.1	-117.422	1579.1	-118.557
		1579.1	-118.557	1579.1	-118.557
				1579.1	-118.557
		1580.57	-110.425	1580.57	-115.794
		1580.57	-115.794	1580.57	-115.794
				1580.57	-115.794
		1582.03	-107.364	1582.03	-117.453
		1582.03	-117.453	1582.03	-117.453
				1582.03	-117.453
		1583.5	-106.443	1583.5	-114.54
		1583.5	-114.54	1583.5	-114.54
				1583.5	-114.54
		1584.96	-106.303	1584.96	-113.611
		1584.96	-113.611	1584.96	-113.611
				1584.96	-113.611
				1586.43	-109.723
				1586.43	-109.723
				1586.43	-109.723
		1587.89	-103.281	1587.89	-114.359
		1587.89	-114.359	1587.89	-114.359
				1587.89	-114.359
				1589.36	-110.183
				1589.36	-110.183
				1589.36	-110.183
		1590.82	-103.069	1590.82	-116.353
		1590.82	-116.353	1590.82	-116.353
				1590.82	-116.353
				1592.29	-109.985
				1592.29	-109.985
				1592.29	-109.985
				1593.75	-110.381
				1593.75	-110.381
				1593.75	-110.381
				1595.21	-107.161
				1595.21	-107.161
				1595.21	-107.161
				1596.68	-107.49
				1596.68	-107.49
				1596.68	-107.49
				1598.14	-116.322
				1598.14	-116.322
				1598.14	-116.322
		1599.61	-108.921	1599.61	-115.225
		1599.61	-115.225	1599.61	-115.225
				1599.61	-115.225
				1601.07	-113.809
				1601.07	-113.809
				1601.07	-113.809
				1602.54	-114.029
				1602.54	-114.029
				1602.54	-114.029
		1604	-105.847	1604	-117.66
		1604	-117.66	1604	-117.66
				1604	-117.66
		1605.47	-109.12	1605.47	-111.598
		1605.47	-111.598	1605.47	-111.598
				1605.47	-111.598
		1606.93	-109.71	1606.93	-114.303
		1606.93	-114.303	1606.93	-114.303
				1606.93	-114.303
		1608.4	-110.869	1608.4	-115.017
		1608.4	-115.017	1608.4	-115.017
				1608.4	-115.017
		1609.86	-111.071	1609.86	-113.3
		1609.86	-113.3	1609.86	-113.3
				1609.86	-113.3
		1611.33	-108.801	1611.33	-117.165
		1611.33	-117.165	1611.33	-117.165
				1611.33	-117.165
				1612.79	-114.198
				1612.79	-114.198
				1612.79	-114.198
				1614.26	-114.696
				1614.26	-114.696
				1614.26	-114.696
				1615.72	-115.624
				1615.72	-115.624
				1615.72	-115.624
		1617.19	-110.065	1617.19	-113.584
		1617.19	-113.584	1617.19	-113.584
				1617.19	-113.584
		1618.65	-114.994	1618.65	-121.452
		1618.65	-121.452	1618.65	-121.452
				1618.65	-121.452
		1620.12	-106.74	1620.12	-119.086
		1620.12	-119.086	1620.12	-119.086
				1620.12	-119.086
		1621.58	-114.186	1621.58	-122.957
		1621.58	-122.957	1621.58	-122.957
				1621.58	-122.957
1623.05	-58.62			1623.05	-118.385
1623.05	-118.385			1623.05	-118.385
				1623.05	-118.385
		1624.51	-114.475	1624.51	-121.876
		1624.51	-121.876	1624.51	-121.876
				1624.51	-121.876
		1625.98	-116.735	1625.98	-125.834
		1625.98	-125.834	1625.98	-125.834
				1625.98	-125.834
		1627.44	-109.407	1627.44	-117.955
		1627.44	-117.955	1627.44	-117.955
				1627.44	-117.955
		1628.91	-101.78	1628.91	-130.375
		1628.91	-130.375	1628.91	-130.375
				1628.91	-130.375
		1630.37	-107.754	1630.37	-110.92
		1630.37	-110.92	1630.37	-110.92
				1630.37	-110.92
				1631.84	-118.651
				1631.84	-118.651
				1631.84	-118.651
		1633.3	-102.121	1633.3	-113.337
		1633.3	-113.337	1633.3	-113.337
				1633.3	-113.337
		1634.77	-105.284	1634.77	-115.549
		1634.77	-115.549	1634.77	-115.549
				1634.77	-115.549
		1636.23	-109.123	1636.23	-115.963
		1636.23	-115.963	1636.23	-115.963
				1636.23	-115.963
				1637.7	-115.167
				1637.7	-115.167
				1637.7	-115.167
				1639.16	-113.188
				1639.16	-113.188
				1639.16	-113.188
				1640.63	-114.775
				1640.63	-114.775
				1640.63	-114.775
				1642.09	-111.742
				1642.09	-111.742
				1642.09	-111.742
		1643.55	-107.176	1643.55	-119.774
		1643.55	-119.774	1643.55	-119.774
				1643.55	-119.774
				1645.02	-108.442
				1645.02	-108.442
				1645.02	-108.442
		1646.48	-110.112	1646.48	-113.234
		1646.48	-113.234	1646.48	-113.234
				1646.48	-113.234
		1647.95	-114.644	1647.95	-123.837
		1647.95	-123.837	1647.95	-123.837
				1647.95	-123.837
				1649.41	-115.945
				1649.41	-115.945
				1649.41	-115.945
		1650.88	-110.056	1650.88	-118.999
		1650.88	-118.999	1650.88	-118.999
				1650.88	-118.999
		1652.34	-107.07	1652.34	-116.304
		1652.34	-116.304	1652.34	-116.304
				1652.34	-116.304
		1653.81	-110.656	1653.81	-121.716
		1653.81	-121.716	1653.81	-121.716
				1653.81	-121.716
				1655.27	-112.673
				1655.27	-112.673
				1655.27	-112.673
				1656.74	-111.052
				1656.74	-111.052
				1656.74	-111.052
		1658.2	-104.317	1658.2	-107.786
		1658.2	-107.786	1658.2	-107.786
				1658.2	-107.786
		1659.67	-108.193	1659.67	-109.718
		1659.67	-109.718	1659.67	-109.718
				1659.67	-109.718
				1661.13	-112.937
				1661.13	-112.937
				1661.13	-112.937
		1662.6	-112.16	1662.6	-115.515
		1662.6	-115.515	1662.6	-115.515
				1662.6	-115.515
				1664.06	-111.92
				1664.06	-111.92
				1664.06	-111.92
				1665.53	-114.909
				1665.53	-114.909
				1665.53	-114.909
				1666.99	-114.219
				1666.99	-114.219
				1666.99	-114.219
		1668.46	-117.161	1668.46	-119.198
		1668.46	-119.198	1668.46	-119.198
				1668.46	-119.198
1669.92	-58.6991			1669.92	-120.865
1669.92	-120.865			1669.92	-120.865
				1669.92	-120.865
		1671.39	-104.601	1671.39	-125.496
		1671.39	-125.496	1671.39	-125.496
				1671.39	-125.496
				1672.85	-109.665
				1672.85	-109.665
				1672.85	-109.665
				1674.32	-107.624
				1674.32	-107.624
				1674.32	-107.624
		1675.78	-113.149	1675.78	-127.608
		1675.78	-127.608	1675.78	-127.608
				1675.78	-127.608
				1677.25	-111.167
				1677.25	-111.167
				1677.25	-111.167
		1678.71	-111.253	1678.71	-120.415
		1678.71	-120.415	1678.71	-120.415
				1678.71	-120.415
		1680.18	-108.092	1680.18	-114.31
		1680.18	-114.31	1680.18	-114.31
				1680.18	-114.31
		1681.64	-111.734	1681.64	-120.689
		1681.64	-120.689	1681.64	-120.689
				1681.64	-120.689
		1683.11	-110.915	1683.11	-115.261
		1683.11	-115.261	1683.11	-115.261
				1683.11	-115.261
		1684.57	-105.75	1684.57	-114.473
		1684.57	-114.473	1684.57	-114.473
				1684.57	-114.473
				1686.04	-112.571
				1686.04	-112.571
				1686.04	-112.571
		1687.5	-106.562	1687.5	-113.749
		1687.5	-113.749	1687.5	-113.749
				1687.5	-113.749
				1688.96	-108.068
				1688.96	-108.068
				1688.96	-108.068
				1690.43	-112.796
				1690.43	-112.796
				1690.43	-112.796
		1691.89	-107.722	1691.89	-119.337
		1691.89	-119.337	1691.89	-119.337
				1691.89	-119.337
				1693.36	-105.607
				1693.36	-105.607
				1693.36	-105.607
		1694.82	-104.16	1694.82	-112.702
		1694.82	-112.702	1694.82	-112.702
				1694.82	-112.702
		1696.29	-105.938	1696.29	-110.846
		1696.29	-110.846	1696.29	-110.846
				1696.29	-110.846
				1697.75	-109.372
				1697.75	-109.372
				1697.75	-109.372
		1699.22	-104.978	1699.22	-111.995
		1699.22	-111.995	1699.22	-111.995
				1699.22	-111.995
		1700.68	-104.18	1700.68	-108.372
		1700.68	-108.372	1700.68	-108.372
				1700.68	-108.372
		1702.15	-105.452	1702.15	-107.21
		1702.15	-107.21	1702.15	-107.21
				1702.15	-107.21
		1703.61	-104.729	1703.61	-109.948
		1703.61	-109.948	1703.61	-109.948
				1703.61	-109.948
		1705.08	-107.739	1705.08	-116.49
		1705.08	-116.49	1705.08	-116.49
				1705.08	-116.49
		1706.54	-107.539	1706.54	-116.031
		1706.54	-116.031	1706.54	-116.031
				1706.54	-116.031
				1708.01	-113.06
				1708.01	-113.06
				1708.01	-113.06
		1709.47	-112.408	1709.47	-117.911
		1709.47	-117.911	1709.47	-117.911
				1709.47	-117.911
				1710.94	-108.432
				1710.94	-108.432
				1710.94	-108.432
				1712.4	-108.519
				1712.4	-108.519
				1712.4	-108.519
		1713.87	-108.262	1713.87	-109.437
		1713.87	-109.437	1713.87	-109.437
				1713.87	-109.437
		1715.33	-108.277	1715.33	-119.639
		1715.33	-119.639	1715.33	-119.639
				1715.33	-119.639
				1716.8	-112.272
				1716.8	-112.272
				1716.8	-112.272
		1718.26	-109.024	1718.26	-114.36
		1718.26	-114.36	1718.26	-114.36
				1718.26	-114.36
1719.73	-58.8724			1719.73	-114.581
1719.73	-114.581			1719.73	-114.581
				1719.73	-114.581
				1721.19	-109.194
				1721.19	-109.194
				1721.19	-109.194
				1722.66	-106.891
				1722.66	-106.891
				1722.66	-106.891
				1724.12	-108.676
				1724.12	-108.676
				1724.12	-108.676
				1725.59	-108.216
				1725.59	-108.216
				1725.59	-108.216
		1727.05	-103.219	1727.05	-114.427
		1727.05	-114.427	1727.05	-114.427
				1727.05	-114.427
		1728.52	-108.492	1728.52	-118.44
		1728.52	-118.44	1728.52	-118.44
				1728.52	-118.44
				1729.98	-110.92
				1729.98	-110.92
				1729.98	-110.92
		1731.45	-107.824	1731.45	-128.266
		1731.45	-128.266	1731.45	-128.266
				1731.45	-128.266
				1732.91	-110.557
				1732.91	-110.557
				1732.91	-110.557
		1734.38	-112.513	1734.38	-115.902
		1734.38	-115.902	1734.38	-115.902
				1734.38	-115.902
				1735.84	-109.175
				1735.84	-109.175
				1735.84	-109.175
		1737.3	-102.361	1737.3	-111.23
		1737.3	-111.23	1737.3	-111.23
				1737.3	-111.23
				1738.77	-105.67
				1738.77	-105.67
				1738.77	-105.67
		1740.23	-104.032	1740.23	-110.126
		1740.23	-110.126	1740.23	-110.126
				1740.23	-110.126
		1741.7	-106.036	1741.7	-115.396
		1741.7	-115.396	1741.7	-115.396
				1741.7	-115.396
		1743.16	-111.642	1743.16	-123.898
		1743.16	-123.898	1743.16	-123.898
				1743.16	-123.898
				1744.63	-109.077
				1744.63	-109.077
				1744.63	-109.077
				1746.09	-106.712
				1746.09	-106.712
				1746.09	-106.712
				1747.56	-104.943
				1747.56	-104.943
				1747.56	-104.943
		1749.02	-107.806	1749.02	-111.665
		1749.02	-111.665	1749.02	-111.665
				1749.02	-111.665
				1750.49	-110.083
				1750.49	-110.083
				1750.49	-110.083
				1751.95	-106.376
				1751.95	-106.376
				1751.95	-106.376
				1753.42	-114.54
				1753.42	-114.54
				1753.42	-114.54
		1754.88	-108.569	1754.88	-111.699
		1754.88	-111.699	1754.88	-111.699
				1754.88	-111.699
		1756.35	-114.881	1756.35	-117.861
		1756.35	-117.861	1756.35	-117.861
				1756.35	-117.861
		1757.81	-103.49	1757.81	-113.894
		1757.81	-113.894	1757.81	-113.894
				1757.81	-113.894
		1759.28	-106.488	1759.28	-115.715
		1759.28	-115.715	1759.28	-115.715
				1759.28	-115.715
				1760.74	-105.538
				1760.74	-105.538
				1760.74	-105.538
				1762.21	-112.257
				1762.21	-112.257
				1762.21	-112.257
				1763.67	-111.58
				1763.67	-111.58
				1763.67	-111.58
		1765.14	-111.149	1765.14	-117.142
		1765.14	-117.142	1765.14	-117.142
				1765.14	-117.142
				1766.6	-111.533
				1766.6	-111.533
				1766.6	-111.533
		1768.07	-104.352	1768.07	-110.981
		1768.07	-110.981	1768.07	-110.981
				1768.07	-110.981
1769.53	-58.9228			1769.53	-115.264
1769.53	-115.264			1769.53	-115.264
				1769.53	-115.264
				1771	-112.039
				1771	-112.039
				1771	-112.039
		1772.46	-107.313	1772.46	-109.186
		1772.46	-109.186	1772.46	-109.186
				1772.46	-109.186
		1773.93	-105.759	1773.93	-119.047
		1773.93	-119.047	1773.93	-119.047
				1773.93	-119.047
		1775.39	-112.199	1775.39	-123.333
		1775.39	-123.333	1775.39	-123.333
				1775.39	-123.333
		1776.86	-112.431	1776.86	-121.301
		1776.86	-121.301	1776.86	-121.301
				1776.86	-121.301
		1778.32	-106.949	1778.32	-115.571
		1778.32	-115.571	1778.32	-115.571
				1778.32	-115.571
		1779.79	-108.411	1779.79	-128.556
		1779.79	-128.556	1779.79	-128.556
				1779.79	-128.556
				1781.25	-107.468
				1781.25	-107.468
				1781.25	-107.468
				1782.71	-109.819
				1782.71	-109.819
				1782.71	-109.819
				1784.18	-110.065
				1784.18	-110.065
				1784.18	-110.065
		1785.64	-102.358	1785.64	-117.576
		1785.64	-117.576	1785.64	-117.576
				1785.64	-117.576
				1787.11	-109.913
				1787.11	-109.913
				1787.11	-109.913
				1788.57	-110.618
				1788.57	-110.618
				1788.57	-110.618
		1790.04	-102.35	1790.04	-114.767
		1790.04	-114.767	1790.04	-114.767
				1790.04	-114.767
		1791.5	-107.725	1791.5	-118.305
		1791.5	-118.305	1791.5	-118.305
				1791.5	-118.305
		1792.97	-112.226	1792.97	-125.976
		1792.97	-125.976	1792.97	-125.976
				1792.97	-125.976
		1794.43	-113.596	1794.43	-115.081
		1794.43	-115.081	1794.43	-115.081
				1794.43	-115.081
				1795.9	-111.384
				1795.9	-111.384
				1795.9	-111.384
				1797.36	-107.205
				1797.36	-107.205
				1797.36	-107.205
		1798.83	-117.379	1798.83	-127.062
		1798.83	-127.062	1798.83	-127.062
				1798.83	-127.062
				1800.29	-110.318
				1800.29	-110.318
				1800.29	-110.318
				1801.76	-107.791
				1801.76	-107.791
				1801.76	-107.791
		1803.22	-105.807	1803.22	-109.084
		1803.22	-109.084	1803.22	-109.084
				1803.22	-109.084
		1804.69	-110.222	1804.69	-125.162
		1804.69	-125.162	1804.69	-125.162
				1804.69	-125.162
		1806.15	-110.498	1806.15	-113.249
		1806.15	-113.249	1806.15	-113.249
				1806.15	-113.249
		1807.62	-111.808	1807.62	-114.032
		1807.62	-114.032	1807.62	-114.032
				1807.62	-114.032
				1809.08	-110.739
				1809.08	-110.739
				1809.08	-110.739
		1810.55	-113.4	1810.55	-115.042
		1810.55	-115.042	1810.55	-115.042
				1810.55	-115.042
		1812.01	-109.236	1812.01	-112.761
		1812.01	-112.761	1812.01	-112.761
				1812.01	-112.761
				1813.48	-108.766
				1813.48	-108.766
				1813.48	-108.766
				1814.94	-108.914
				1814.94	-108.914
				1814.94	-108.914
		1816.41	-108.488	1816.41	-112.646
		1816.41	-112.646	1816.41	-112.646
				1816.41	-112.646
		1817.87	-110.753	1817.87	-115.267
		1817.87	-115.267	1817.87	-115.267
				1817.87	-115.267
				1819.34	-123.137
				1819.34	-123.137
				1819.34	-123.137
				1820.8	-108.364
				1820.8	-108.364
				1820.8	-108.364
1822.27	-59.0333			1822.27	-110.591
1822.27	-110.591			1822.27	-110.591
				1822.27	-110.591
		1823.73	-109.46	1823.73	-114.952
		1823.73	-114.952	1823.73	-114.952
				1823.73	-114.952
				1825.2	-114.623
				1825.2	-114.623
				1825.2	-114.623
		1826.66	-108.447	1826.66	-109.537
		1826.66	-109.537	1826.66	-109.537
				1826.66	-109.537
				1828.13	-110.035
				1828.13	-110.035
				1828.13	-110.035
		1829.59	-103.996	1829.59	-109.209
		1829.59	-109.209	1829.59	-109.209
				1829.59	-109.209
		1831.05	-104.976	1831.05	-110.059
		1831.05	-110.059	1831.05	-110.059
				1831.05	-110.059
				1832.52	-110.122
				1832.52	-110.122
				1832.52	-110.122
		1833.98	-105.226	1833.98	-117.211
		1833.98	-117.211	1833.98	-117.211
				1833.98	-117.211
		1835.45	-102.184	1835.45	-118.462
		1835.45	-118.462	1835.45	-118.462
				1835.45	-118.462
		1836.91	-110.288	1836.91	-122.627
		1836.91	-122.627	1836.91	-122.627
				1836.91	-122.627
		1838.38	-120.429	1838.38	-126.933
		1838.38	-126.933	1838.38	-126.933
				1838.38	-126.933
		1839.84	-109.212	1839.84	-128.183
		1839.84	-128.183	1839.84	-128.183
				1839.84	-128.183
				1841.31	-119.106
				1841.31	-119.106
				1841.31	-119.106
				1842.77	-104.938
				1842.77	-104.938
				1842.77	-104.938
		1844.24	-105.112	1844.24	-111.428
		1844.24	-111.428	1844.24	-111.428
				1844.24	-111.428
				1845.7	-107.724
				1845.7	-107.724
				1845.7	-107.724
		1847.17	-113.603	1847.17	-115.812
		1847.17	-115.812	1847.17	-115.812
				1847.17	-115.812
		1848.63	-108.277	1848.63	-115.176
		1848.63	-115.176	1848.63	-115.176
				1848.63	-115.176
				1850.1	-108.37
				1850.1	-108.37
				1850.1	-108.37
		1851.56	-115.721	1851.56	-128.836
		1851.56	-128.836	1851.56	-128.836
				1851.56	-128.836
		1853.03	-109.296	1853.03	-121.927
		1853.03	-121.927	1853.03	-121.927
				1853.03	-121.927
				1854.49	-108.506
				1854.49	-108.506
				1854.49	-108.506
		1855.96	-112.509	1855.96	-116.232
		1855.96	-116.232	1855.96	-116.232
				1855.96	-116.232
		1857.42	-107.687	1857.42	-109.778
		1857.42	-109.778	1857.42	-109.778
				1857.42	-109.778
		1858.89	-112.265	1858.89	-119.16
		1858.89	-119.16	1858.89	-119.16
				1858.89	-119.16
				1860.35	-106.224
				1860.35	-106.224
				1860.35	-106.224
		1861.82	-112.712	1861.82	-117.408
		1861.82	-117.408	1861.82	-117.408
				1861.82	-117.408
		1863.28	-114.521	1863.28	-116.533
		1863.28	-116.533	1863.28	-116.533
				1863.28	-116.533
		1864.75	-106.085	1864.75	-110.408
		1864.75	-110.408	1864.75	-110.408
				1864.75	-110.408
				1866.21	-106.928
				1866.21	-106.928
				1866.21	-106.928
				1867.68	-109.229
				1867.68	-109.229
				1867.68	-109.229
		1869.14	-115.809	1869.14	-118.419
		1869.14	-118.419	1869.14	-118.419
				1869.14	-118.419
		1870.61	-109.873	1870.61	-111.531
		1870.61	-111.531	1870.61	-111.531
				1870.61	-111.531
				1872.07	-108.054
				1872.07	-108.054
				1872.07	-108.054
		1873.54	-102.375	1873.54	-109.102
		1873.54	-109.102	1873.54	-109.102
				1873.54	-109.102
1875	-59.1243			1875	-112.997
1875	-112.997			1875	-112.997
				1875	-112.997
				1876.46	-111.026
				1876.46	-111.026
				1876.46	-111.026
		1877.93	-108.467	1877.93	-120.2
		1877.93	-120.2	1877.93	-120.2
				1877.93	-120.2
		1879.39	-113.798	1879.39	-119.197
		1879.39	-119.197	1879.39	-119.197
				1879.39	-119.197
		1880.86	-105.278	1880.86	-109.111
		1880.86	-109.111	1880.86	-109.111
				1880.86	-109.111
		1882.32	-110.782	1882.32	-114.692
		1882.32	-114.692	1882.32	-114.692
				1882.32	-114.692
				1883.79	-112.293
				1883.79	-112.293
				1883.79	-112.293
		1885.25	-104.752	1885.25	-119.023
		1885.25	-119.023	1885.25	-119.023
				1885.25	-119.023
		1886.72	-106.248	1886.72	-111.973
		1886.72	-111.973	1886.72	-111.973
				1886.72	-111.973
		1888.18	-105.716	1888.18	-112.638
		1888.18	-112.638	1888.18	-112.638
				1888.18	-112.638
				1889.65	-113.452
				1889.65	-113.452
				1889.65	-113.452
		1891.11	-107.96	1891.11	-115.303
		1891.11	-115.303	1891.11	-115.303
				1891.11	-115.303
		1892.58	-106.956	1892.58	-113.655
		1892.58	-113.655	1892.58	-113.655
				1892.58	-113.655
				1894.04	-106.722
				1894.04	-106.722
				1894.04	-106.722
				1895.51	-109.218
				1895.51	-109.218
				1895.51	-109.218
		1896.97	-112.126	1896.97	-113.344
		1896.97	-113.344	1896.97	-113.344
				1896.97	-113.344
		1898.44	-107.669	1898.44	-113.904
		1898.44	-113.904	1898.44	-113.904
				1898.44	-113.904
				1899.9	-106.219
				1899.9	-106.219
				1899.9	-106.219
		1901.37	-119.552	1901.37	-120.612
		1901.37	-120.612	1901.37	-120.612
				1901.37	-120.612
				1902.83	-110.314
				1902.83	-110.314
				1902.83	-110.314
		1904.3	-116.264	1904.3	-118.571
		1904.3	-118.571	1904.3	-118.571
				1904.3	-118.571
		1905.76	-107.93	1905.76	-109.494
		1905.76	-109.494	1905.76	-109.494
				1905.76	-109.494
		1907.23	-101.591	1907.23	-114.136
		1907.23	-114.136	1907.23	-114.136
				1907.23	-114.136
				1908.69	-108.829
				1908.69	-108.829
				1908.69	-108.829
				1910.16	-113.854
				1910.16	-113.854
				1910.16	-113.854
				1911.62	-111.229
				1911.62	-111.229
				1911.62	-111.229
				1913.09	-107.032
				1913.09	-107.032
				1913.09	-107.032
				1914.55	-106.717
				1914.55	-106.717
				1914.55	-106.717
		1916.02	-110.345	1916.02	-114.222
		1916.02	-114.222	1916.02	-114.222
				1916.02	-114.222
		1917.48	-108.476	1917.48	-122.162
		1917.48	-122.162	1917.48	-122.162
				1917.48	-122.162
		1918.95	-105.496	1918.95	-114.601
		1918.95	-114.601	1918.95	-114.601
				1918.95	-114.601
		1920.41	-110.122	1920.41	-112.093
		1920.41	-112.093	1920.41	-112.093
				1920.41	-112.093
		1921.88	-104.614	1921.88	-109.808
		1921.88	-109.808	1921.88	-109.808
				1921.88	-109.808
				1923.34	-111.711
				1923.34	-111.711
				1923.34	-111.711
				1924.8	-107.208
				1924.8	-107.208
				1924.8	-107.208
		1926.27	-112.577	1926.27	-118.872
		1926.27	-118.872	1926.27	-118.872
				1926.27	-118.872
		1927.73	-111.139	1927.73	-116.663
		1927.73	-116.663	1927.73	-116.663
				1927.73	-116.663
		1929.2	-106.139	1929.2	-112.749
		1929.2	-112.749	1929.2	-112.749
				1929.2	-112.749
1930.66	-59.2436			1930.66	-136.782
1930.66	-136.782			1930.66	-136.782
				1930.66	-136.782
		1932.13	-114.445	1932.13	-119.999
		1932.13	-119.999	1932.13	-119.999
				1932.13	-119.999
		1933.59	-101.917	1933.59	-118.045
		1933.59	-118.045	1933.59	-118.045
				1933.59	-118.045
		1935.06	-105.023	1935.06	-125.74
		1935.06	-125.74	1935.06	-125.74
				1935.06	-125.74
				1936.52	-110.245
				1936.52	-110.245
				1936.52	-110.245
		1937.99	-109.569	1937.99	-123.108
		1937.99	-123.108	1937.99	-123.108
				1937.99	-123.108
		1939.45	-106.507	1939.45	-110.781
		1939.45	-110.781	1939.45	-110.781
				1939.45	-110.781
		1940.92	-107.651	1940.92	-112.821
		1940.92	-112.821	1940.92	-112.821
				1940.92	-112.821
				1942.38	-112.017
				1942.38	-112.017
				1942.38	-112.017
		1943.85	-111.03	1943.85	-112.505
		1943.85	-112.505	1943.85	-112.505
				1943.85	-112.505
		1945.31	-108.684	1945.31	-111.532
		1945.31	-111.532	1945.31	-111.532
				1945.31	-111.532
				1946.78	-116.071
				1946.78	-116.071
				1946.78	-116.071
				1948.24	-108.667
				1948.24	-108.667
				1948.24	-108.667
		1949.71	-113.03	1949.71	-116.173
		1949.71	-116.173	1949.71	-116.173
				1949.71	-116.173
				1951.17	-114.012
				1951.17	-114.012
				1951.17	-114.012
		1952.64	-107.591	1952.64	-116.406
		1952.64	-116.406	1952.64	-116.406
				1952.64	-116.406
		1954.1	-107.693	1954.1	-114.228
		1954.1	-114.228	1954.1	-114.228
				1954.1	-114.228
				1955.57	-111.292
				1955.57	-111.292
				1955.57	-111.292
		1957.03	-107.963	1957.03	-109.675
		1957.03	-109.675	1957.03	-109.675
				1957.03	-109.675
				1958.5	-107.18
				1958.5	-107.18
				1958.5	-107.18
		1959.96	-103.247	1959.96	-108.582
		1959.96	-108.582	1959.96	-108.582
				1959.96	-108.582
				1961.43	-110.628
				1961.43	-110.628
				1961.43	-110.628
				1962.89	-108.513
				1962.89	-108.513
				1962.89	-108.513
		1964.36	-115.172	1964.36	-121.665
		1964.36	-121.665	1964.36	-121.665
				1964.36	-121.665
		1965.82	-115.459	1965.82	-120.815
		1965.82	-120.815	1965.82	-120.815
				1965.82	-120.815
				1967.29	-105.039
				1967.29	-105.039
				1967.29	-105.039
		1968.75	-104.468	1968.75	-113.128
		1968.75	-113.128	1968.75	-113.128
				1968.75	-113.128
		1970.21	-110.773	1970.21	-127.124
		1970.21	-127.124	1970.21	-127.124
				1970.21	-127.124
		1971.68	-109.779	1971.68	-118.318
		1971.68	-118.318	1971.68	-118.318
				1971.68	-118.318
				1973.14	-112.502
				1973.14	-112.502
				1973.14	-112.502
		1974.61	-112.287	1974.61	-126.568
		1974.61	-126.568	1974.61	-126.568
				1974.61	-126.568
				1976.07	-112.004
				1976.07	-112.004
				1976.07	-112.004
		1977.54	-108.663	1977.54	-115.447
		1977.54	-115.447	1977.54	-115.447
				1977.54	-115.447
		1979	-108.035	1979	-117.353
		1979	-117.353	1979	-117.353
				1979	-117.353
				1980.47	-106.107
				1980.47	-106.107
				1980.47	-106.107
				1981.93	-112.742
				1981.93	-112.742
				1981.93	-112.742
				1983.4	-119.148
				1983.4	-119.148
				1983.4	-119.148
		1984.86	-107.886	1984.86	-113.689
		1984.86	-113.689	1984.86	-113.689
				1984.86	-113.689
1986.33	-59.3536			1986.33	-113.271
1986.33	-113.271			1986.33	-113.271
				1986.33	-113.271
		1987.79	-113.698	1987.79	-122.007
		1987.79	-122.007	1987.79	-122.007
				1987.79	-122.007
		1989.26	-105.927	1989.26	-110.823
		1989.26	-110.823	1989.26	-110.823
				1989.26	-110.823
				1990.72	-108.611
				1990.72	-108.611
				1990.72	-108.611
		1992.19	-109.683	1992.19	-132.537
		1992.19	-132.537	1992.19	-132.537
				1992.19	-132.537
				1993.65	-110.56
				1993.65	-110.56
				1993.65	-110.56
		1995.12	-106.31	1995.12	-112.043
		1995.12	-112.043	1995.12	-112.043
				1995.12	-112.043
				1996.58	-111.079
				1996.58	-111.079
				1996.58	-111.079
		1998.05	-106.865	1998.05	-116.376
		1998.05	-116.376	1998.05	-116.376
				1998.05	-116.376
		1999.51	-105.128	1999.51	-113.17
		1999.51	-113.17	1999.51	-113.17
				1999.51	-113.17
		2000.98	-109.346	2000.98	-125.272
		2000.98	-125.272	2000.98	-125.272
				2000.98	-125.272
		2002.44	-108.303	2002.44	-112.193
		2002.44	-112.193	2002.44	-112.193
				2002.44	-112.193
				2003.91	-113.402
				2003.91	-113.402
				2003.91	-113.402
				2005.37	-111.512
				2005.37	-111.512
				2005.37	-111.512
				2006.84	-106.247
				2006.84	-106.247
				2006.84	-106.247
				2008.3	-107.429
				2008.3	-107.429
				2008.3	-107.429
		2009.77	-108.851	2009.77	-117.678
		2009.77	-117.678	2009.77	-117.678
				2009.77	-117.678
				2011.23	-110.613
				2011.23	-110.613
				2011.23	-110.613
		2012.7	-108.857	2012.7	-117.7
		2012.7	-117.7	2012.7	-117.7
				2012.7	-117.7
		2014.16	-114.681	2014.16	-119.606
		2014.16	-119.606	2014.16	-119.606
				2014.16	-119.606
		2015.63	-108.368	2015.63	-111.641
		2015.63	-111.641	2015.63	-111.641
				2015.63	-111.641
		2017.09	-107.986	2017.09	-111.748
		2017.09	-111.748	2017.09	-111.748
				2017.09	-111.748
		2018.55	-106.305	2018.55	-111.008
		2018.55	-111.008	2018.55	-111.008
				2018.55	-111.008
				2020.02	-118
				2020.02	-118
				2020.02	-118
		2021.48	-113.108	2021.48	-115.749
		2021.48	-115.749	2021.48	-115.749
				2021.48	-115.749
				2022.95	-107.412
				2022.95	-107.412
				2022.95	-107.412
		2024.41	-103.012	2024.41	-108.645
		2024.41	-108.645	2024.41	-108.645
				2024.41	-108.645
		2025.88	-106.339	2025.88	-113.269
		2025.88	-113.269	2025.88	-113.269
				2025.88	-113.269
		2027.34	-108.69	2027.34	-117.611
		2027.34	-117.611	2027.34	-117.611
				2027.34	-117.611
		2028.81	-106.425	2028.81	-113.14
		2028.81	-113.14	2028.81	-113.14
				2028.81	-113.14
				2030.27	-110.09
				2030.27	-110.09
				2030.27	-110.09
		2031.74	-113.446	2031.74	-124.381
		2031.74	-124.381	2031.74	-124.381
				2031.74	-124.381
		2033.2	-108.494	2033.2	-112.51
		2033.2	-112.51	2033.2	-112.51
				2033.2	-112.51
		2034.67	-109.586	2034.67	-116.286
		2034.67	-116.286	2034.67	-116.286
				2034.67	-116.286
				2036.13	-111.596
				2036.13	-111.596
				2036.13	-111.596
				2037.6	-125.922
				2037.6	-125.922
				2037.6	-125.922
		2039.06	-105.987	2039.06	-109.979
		2039.06	-109.979	2039.06	-109.979
				2039.06	-109.979
		2040.53	-109.113	2040.53	-115.278
		2040.53	-115.278	2040.53	-115.278
				2040.53	-115.278
				2041.99	-111.124
				2041.99	-111.124
				2041.99	-111.124
		2043.46	-105.771	2043.46	-113.714
		2043.46	-113.714	2043.46	-113.714
				2043.46	-113.714
2044.92	-59.4325			2044.92	-120.599
2044.92	-120.599			2044.92	-120.599
				2044.92	-120.599
		2046.39	-108.337	2046.39	-117.733
		2046.39	-117.733	2046.39	-117.733
				2046.39	-117.733
				2047.85	-112.919
				2047.85	-112.919
				2047.85	-112.919
		2049.32	-105.117	2049.32	-114.52
		2049.32	-114.52	2049.32	-114.52
				2049.32	-114.52
				2050.78	-116.095
				2050.78	-116.095
				2050.78	-116.095
				2052.25	-112.126
				2052.25	-112.126
				2052.25	-112.126
		2053.71	-112.457	2053.71	-116.708
		2053.71	-116.708	2053.71	-116.708
				2053.71	-116.708
		2055.18	-103.712	2055.18	-111.941
		2055.18	-111.941	2055.18	-111.941
				2055.18	-111.941
				2056.64	-107.787
				2056.64	-107.787
				2056.64	-107.787
		2058.11	-104.38	2058.11	-116.278
		2058.11	-116.278	2058.11	-116.278
				2058.11	-116.278
				2059.57	-108.662
				2059.57	-108.662
				2059.57	-108.662
		2061.04	-109.633	2061.04	-117.007
		2061.04	-117.007	2061.04	-117.007
				2061.04	-117.007
		2062.5	-107.61	2062.5	-117.973
		2062.5	-117.973	2062.5	-117.973
				2062.5	-117.973
		2063.96	-104.837	2063.96	-116.321
		2063.96	-116.321	2063.96	-116.321
				2063.96	-116.321
				2065.43	-113.035
				2065.43	-113.035
				2065.43	-113.035
		2066.89	-106.556	2066.89	-113.134
		2066.89	-113.134	2066.89	-113.134
				2066.89	-113.134
		2068.36	-109.528	2068.36	-122.779
		2068.36	-122.779	2068.36	-122.779
				2068.36	-122.779
		2069.82	-105.974	2069.82	-117.892
		2069.82	-117.892	2069.82	-117.892
				2069.82	-117.892
				2071.29	-107.3
				2071.29	-107.3
				2071.29	-107.3
				2072.75	-118.652
				2072.75	-118.652
				2072.75	-118.652
		2074.22	-111.035	2074.22	-116.167
		2074.22	-116.167	2074.22	-116.167
				2074.22	-116.167
		2075.68	-106.84	2075.68	-114.347
		2075.68	-114.347	2075.68	-114.347
				2075.68	-114.347
		2077.15	-108.981	2077.15	-119.25
		2077.15	-119.25	2077.15	-119.25
				2077.15	-119.25
				2078.61	-109.032
				2078.61	-109.032
				2078.61	-109.032
		2080.08	-109.587	2080.08	-122.064
		2080.08	-122.064	2080.08	-122.064
				2080.08	-122.064
		2081.54	-104.821	2081.54	-110.608
		2081.54	-110.608	2081.54	-110.608
				2081.54	-110.608
		2083.01	-105.933	2083.01	-107.517
		2083.01	-107.517	2083.01	-107.517
				2083.01	-107.517
				2084.47	-108.832
				2084.47	-108.832
				2084.47	-108.832
				2085.94	-105.416
				2085.94	-105.416
				2085.94	-105.416
		2087.4	-108.879	2087.4	-119.977
		2087.4	-119.977	2087.4	-119.977
				2087.4	-119.977
		2088.87	-110.46	2088.87	-113.045
		2088.87	-113.045	2088.87	-113.045
				2088.87	-113.045
		2090.33	-114.4	2090.33	-123.939
		2090.33	-123.939	2090.33	-123.939
				2090.33	-123.939
		2091.8	-107.087	2091.8	-115.132
		2091.8	-115.132	2091.8	-115.132
				2091.8	-115.132
				2093.26	-111.244
				2093.26	-111.244
				2093.26	-111.244
		2094.73	-110.385	2094.73	-117.274
		2094.73	-117.274	2094.73	-117.274
				2094.73	-117.274
		2096.19	-120.705	2096.19	-124.302
		2096.19	-124.302	2096.19	-124.302
				2096.19	-124.302
		2097.66	-106.12	2097.66	-111.259
		2097.66	-111.259	2097.66	-111.259
				2097.66	-111.259
		2099.12	-109.402	2099.12	-111.334
		2099.12	-111.334	2099.12	-111.334
				2099.12	-111.334
				2100.59	-111.54
				2100.59	-111.54
				2100.59	-111.54
				2102.05	-108.221
				2102.05	-108.221
				2102.05	-108.221
				2103.52	-111.27
				2103.52	-111.27
				2103.52	-111.27
		2104.98	-106.702	2104.98	-108.761
		2104.98	-108.761	2104.98	-108.761
				2104.98	-108.761
		2106.45	-112.337	2106.45	-113.699
		2106.45	-113.699	2106.45	-113.699
				2106.45	-113.699
		2107.91	-107.582	2107.91	-120.661
		2107.91	-120.661	2107.91	-120.661
				2107.91	-120.661
		2109.38	-107.627	2109.38	-112.854
		2109.38	-112.854	2109.38	-112.854
				2109.38	-112.854
		2110.84	-110.56	2110.84	-115.955
		2110.84	-115.955	2110.84	-115.955
				2110.84	-115.955
		2112.3	-106.994	2112.3	-111.896
		2112.3	-111.896	2112.3	-111.896
				2112.3	-111.896
		2113.77	-108.838	2113.77	-113.003
		2113.77	-113.003	2113.77	-113.003
				2113.77	-113.003
				2115.23	-120.025
				2115.23	-120.025
				2115.23	-120.025
		2116.7	-106.753	2116.7	-113.696
		2116.7	-113.696	2116.7	-113.696
				2116.7	-113.696
		2118.16	-112.855	2118.16	-118.455
		2118.16	-118.455	2118.16	-118.455
				2118.16	-118.455
				2119.63	-114.004
				2119.63	-114.004
				2119.63	-114.004
				2121.09	-116.269
				2121.09	-116.269
				2121.09	-116.269
		2122.56	-103.881	2122.56	-114.305
		2122.56	-114.305	2122.56	-114.305
				2122.56	-114.305
				2124.02	-111.434
				2124.02	-111.434
				2124.02	-111.434
				2125.49	-113.003
				2125.49	-113.003
				2125.49	-113.003
		2126.95	-104.886	2126.95	-108.219
		2126.95	-108.219	2126.95	-108.219
				2126.95	-108.219
		2128.42	-108.526	2128.42	-109.572
		2128.42	-109.572	2128.42	-109.572
				2128.42	-109.572
		2129.88	-111.515	2129.88	-120.028
		2129.88	-120.028	2129.88	-120.028
				2129.88	-120.028
		2131.35	-107.182	2131.35	-109.227
		2131.35	-109.227	2131.35	-109.227
				2131.35	-109.227
				2132.81	-113.773
				2132.81	-113.773
				2132.81	-113.773
				2134.28	-108.372
				2134.28	-108.372
				2134.28	-108.372
				2135.74	-105.678
				2135.74	-105.678
				2135.74	-105.678
		2137.21	-106.31	2137.21	-109.991
		2137.21	-109.991	2137.21	-109.991
				2137.21	-109.991
		2138.67	-112.06	2138.67	-113.102
		2138.67	-113.102	2138.67	-113.102
				2138.67	-113.102
				2140.14	-108.911
				2140.14	-108.911
				2140.14	-108.911
		2141.6	-115.914	2141.6	-122.997
		2141.6	-122.997	2141.6	-122.997
				2141.6	-122.997
				2143.07	-110.335
				2143.07	-110.335
				2143.07	-110.335
		2144.53	-109.225	2144.53	-111.37
		2144.53	-111.37	2144.53	-111.37
				2144.53	-111.37
				2146	-108.692
				2146	-108.692
				2146	-108.692
				2147.46	-111.153
				2147.46	-111.153
				2147.46	-111.153
				2148.93	-119.318
				2148.93	-119.318
				2148.93	-119.318
		2150.39	-106.528	2150.39	-109.055
		2150.39	-109.055	2150.39	-109.055
				2150.39	-109.055
				2151.86	-104.661
				2151.86	-104.661
				2151.86	-104.661
		2153.32	-108.803	2153.32	-112.45
		2153.32	-112.45	2153.32	-112.45
				2153.32	-112.45
				2154.79	-112.206
				2154.79	-112.206
				2154.79	-112.206
		2156.25	-107.99	2156.25	-121.283
		2156.25	-121.283	2156.25	-121.283
				2156.25	-121.283
				2157.71	-107.898
				2157.71	-107.898
				2157.71	-107.898
		2159.18	-108.506	2159.18	-118.392
		2159.18	-118.392	2159.18	-118.392
				2159.18	-118.392
		2160.64	-111.612	2160.64	-114.222
		2160.64	-114.222	2160.64	-114.222
				2160.64	-114.222
		2162.11	-116.79	2162.11	-119.922
		2162.11	-119.922	2162.11	-119.922
				2162.11	-119.922
				2163.57	-113.207
				2163.57	-113.207
				2163.57	-113.207
				2165.04	-110.953
				2165.04	-110.953
				2165.04	-110.953
		2166.5	-118.208	2166.5	-131.005
		2166.5	-131.005	2166.5	-131.005
				2166.5	-131.005
		2167.97	-112.537	2167.97	-123.485
		2167.97	-123.485	2167.97	-123.485
				2167.97	-123.485
				2169.43	-105.79
				2169.43	-105.79
				2169.43	-105.79
		2170.9	-109.596	2170.9	-111.426
		2170.9	-111.426	2170.9	-111.426
				2170.9	-111.426
		2172.36	-117.472	2172.36	-124.292
		2172.36	-124.292	2172.36	-124.292
				2172.36	-124.292
				2173.83	-114.156
				2173.83	-114.156
				2173.83	-114.156
		2175.29	-107.77	2175.29	-112.051
		2175.29	-112.051	2175.29	-112.051
				2175.29	-112.051
				2176.76	-114.059
				2176.76	-114.059
				2176.76	-114.059
		2178.22	-107.761	2178.22	-110.019
		2178.22	-110.019	2178.22	-110.019
				2178.22	-110.019
		2179.69	-107.244	2179.69	-120.354
		2179.69	-120.354	2179.69	-120.354
				2179.69	-120.354
		2181.15	-108.424	2181.15	-114.092
		2181.15	-114.092	2181.15	-114.092
				2181.15	-114.092
				2182.62	-106.318
				2182.62	-106.318
				2182.62	-106.318
		2184.08	-105.014	2184.08	-117.834
		2184.08	-117.834	2184.08	-117.834
				2184.08	-117.834
				2185.55	-103.265
				2185.55	-103.265
				2185.55	-103.265
				2187.01	-107.756
				2187.01	-107.756
				2187.01	-107.756
				2188.48	-112.727
				2188.48	-112.727
				2188.48	-112.727
				2189.94	-109.727
				2189.94	-109.727
				2189.94	-109.727
		2191.41	-113.004	2191.41	-116.339
		2191.41	-116.339	2191.41	-116.339
				2191.41	-116.339
		2192.87	-101.316	2192.87	-117.44
		2192.87	-117.44	2192.87	-117.44
				2192.87	-117.44
		2194.34	-106.009	2194.34	-117.82
		2194.34	-117.82	2194.34	-117.82
				2194.34	-117.82
		2195.8	-110.844	2195.8	-116.882
		2195.8	-116.882	2195.8	-116.882
				2195.8	-116.882
		2197.27	-112.762	2197.27	-120.35
		2197.27	-120.35	2197.27	-120.35
				2197.27	-120.35
				2198.73	-116.706
				2198.73	-116.706
				2198.73	-116.706
		2200.2	-104.95	2200.2	-117.322
		2200.2	-117.322	2200.2	-117.322
				2200.2	-117.322
				2201.66	-109.061
				2201.66	-109.061
				2201.66	-109.061
		2203.13	-104.208	2203.13	-108.974
		2203.13	-108.974	2203.13	-108.974
				2203.13	-108.974
		2204.59	-105.919	2204.59	-114.431
		2204.59	-114.431	2204.59	-114.431
				2204.59	-114.431
		2206.05	-110.427	2206.05	-116.316
		2206.05	-116.316	2206.05	-116.316
				2206.05	-116.316
		2207.52	-113.283	2207.52	-116.52
		2207.52	-116.52	2207.52	-116.52
				2207.52	-116.52
		2208.98	-105.169	2208.98	-107.694
		2208.98	-107.694	2208.98	-107.694
				2208.98	-107.694
		2210.45	-111.743	2210.45	-124.858
		2210.45	-124.858	2210.45	-124.858
				2210.45	-124.858
				2211.91	-115.339
				2211.91	-115.339
				2211.91	-115.339
				2213.38	-111.918
				2213.38	-111.918
				2213.38	-111.918
				2214.84	-113.293
				2214.84	-113.293
				2214.84	-113.293
		2216.31	-114.78	2216.31	-116.321
		2216.31	-116.321	2216.31	-116.321
				2216.31	-116.321
				2217.77	-105.108
				2217.77	-105.108
				2217.77	-105.108
		2219.24	-116.05	2219.24	-128.849
		2219.24	-128.849	2219.24	-128.849
				2219.24	-128.849
		2220.7	-109.656	2220.7	-114.868
		2220.7	-114.868	2220.7	-114.868
				2220.7	-114.868
				2222.17	-119.666
				2222.17	-119.666
				2222.17	-119.666
				2223.63	-110.3
				2223.63	-110.3
				2223.63	-110.3
		2225.1	-109.857	2225.1	-116.393
		2225.1	-116.393	2225.1	-116.393
				2225.1	-116.393
				2226.56	-107.951
				2226.56	-107.951
				2226.56	-107.951
		2228.03	-107.119	2228.03	-108.861
		2228.03	-108.861	2228.03	-108.861
				2228.03	-108.861
		2229.49	-104.938	2229.49	-110.38
		2229.49	-110.38	2229.49	-110.38
				2229.49	-110.38
				2230.96	-108.823
				2230.96	-108.823
				2230.96	-108.823
		2232.42	-115.592	2232.42	-117.854
		2232.42	-117.854	2232.42	-117.854
				2232.42	-117.854
				2233.89	-115.589
				2233.89	-115.589
				2233.89	-115.589
				2235.35	-107.938
				2235.35	-107.938
				2235.35	-107.938
		2236.82	-116.361	2236.82	-123.469
		2236.82	-123.469	2236.82	-123.469
				2236.82	-123.469
		2238.28	-107.24	2238.28	-118.853
		2238.28	-118.853	2238.28	-118.853
				2238.28	-118.853
				2239.75	-108.934
				2239.75	-108.934
				2239.75	-108.934
				2241.21	-114.382
				2241.21	-114.382
				2241.21	-114.382
		2242.68	-108.198	2242.68	-111.96
		2242.68	-111.96	2242.68	-111.96
				2242.68	-111.96
				2244.14	-115.45
				2244.14	-115.45
				2244.14	-115.45
				2245.61	-118.843
				2245.61	-118.843
				2245.61	-118.843
		2247.07	-110.846	2247.07	-116.691
		2247.07	-116.691	2247.07	-116.691
				2247.07	-116.691
				2248.54	-105.694
				2248.54	-105.694
				2248.54	-105.694
				2250	-111.063
				2250	-111.063
				2250	-111.063
		2251.46	-105.915	2251.46	-115.191
		2251.46	-115.191	2251.46	-115.191
				2251.46	-115.191
				2252.93	-115.012
				2252.93	-115.012
				2252.93	-115.012
		2254.39	-107.519	2254.39	-121.761
		2254.39	-121.761	2254.39	-121.761
				2254.39	-121.761
				2255.86	-106.865
				2255.86	-106.865
				2255.86	-106.865
				2257.32	-115.687
				2257.32	-115.687
				2257.32	-115.687
				2258.79	-113.306
				2258.79	-113.306
				2258.79	-113.306
				2260.25	-107.574
				2260.25	-107.574
				2260.25	-107.574
		2261.72	-108.805	2261.72	-113.896
		2261.72	-113.896	2261.72	-113.896
				2261.72	-113.896
		2263.18	-111.557	2263.18	-117.863
		2263.18	-117.863	2263.18	-117.863
				2263.18	-117.863
				2264.65	-109.436
				2264.65	-109.436
				2264.65	-109.436
		2266.11	-107.57	2266.11	-117.332
		2266.11	-117.332	2266.11	-117.332
				2266.11	-117.332
				2267.58	-109.196
				2267.58	-109.196
				2267.58	-109.196
				2269.04	-108.081
				2269.04	-108.081
				2269.04	-108.081
				2270.51	-113.826
				2270.51	-113.826
				2270.51	-113.826
		2271.97	-109.16	2271.97	-112.837
		2271.97	-112.837	2271.97	-112.837
				2271.97	-112.837
				2273.44	-112.854
				2273.44	-112.854
				2273.44	-112.854
				2274.9	-112.385
				2274.9	-112.385
				2274.9	-112.385
		2276.37	-108.346	2276.37	-113.891
		2276.37	-113.891	2276.37	-113.891
				2276.37	-113.891
		2277.83	-111.721	2277.83	-125.17
		2277.83	-125.17	2277.83	-125.17
				2277.83	-125.17
				2279.3	-110.54
				2279.3	-110.54
				2279.3	-110.54
		2280.76	-106.585	2280.76	-114.489
		2280.76	-114.489	2280.76	-114.489
				2280.76	-114.489
				2282.23	-110.229
				2282.23	-110.229
				2282.23	-110.229
		2283.69	-104.069	2283.69	-108.844
		2283.69	-108.844	2283.69	-108.844
				2283.69	-108.844
				2285.16	-111.828
				2285.16	-111.828
				2285.16	-111.828
		2286.62	-106.648	2286.62	-111.847
		2286.62	-111.847	2286.62	-111.847
				2286.62	-111.847
		2288.09	-112.887	2288.09	-117.793
		2288.09	-117.793	2288.09	-117.793
				2288.09	-117.793
		2289.55	-105.773	2289.55	-114.682
		2289.55	-114.682	2289.55	-114.682
				2289.55	-114.682
		2291.02	-112.031	2291.02	-113.039
		2291.02	-113.039	2291.02	-113.039
				2291.02	-113.039
				2292.48	-113.872
				2292.48	-113.872
				2292.48	-113.872
				2293.95	-110.475
				2293.95	-110.475
				2293.95	-110.475
		2295.41	-106.843	2295.41	-112.827
		2295.41	-112.827	2295.41	-112.827
				2295.41	-112.827
				2296.88	-107.554
				2296.88	-107.554
				2296.88	-107.554
		2298.34	-108.767	2298.34	-109.78
		2298.34	-109.78	2298.34	-109.78
				2298.34	-109.78
				2299.8	-115.999
				2299.8	-115.999
				2299.8	-115.999
				2301.27	-111.828
				2301.27	-111.828
				2301.27	-111.828
		2302.73	-108.553	2302.73	-113.251
		2302.73	-113.251	2302.73	-113.251
				2302.73	-113.251
				2304.2	-107.917
				2304.2	-107.917
				2304.2	-107.917
				2305.66	-109.329
				2305.66	-109.329
				2305.66	-109.329
				2307.13	-113.637
				2307.13	-113.637
				2307.13	-113.637
		2308.59	-107.743	2308.59	-114.027
		2308.59	-114.027	2308.59	-114.027
				2308.59	-114.027
		2310.06	-107.642	2310.06	-111.429
		2310.06	-111.429	2310.06	-111.429
				2310.06	-111.429
		2311.52	-106.035	2311.52	-113.48
		2311.52	-113.48	2311.52	-113.48
				2311.52	-113.48
		2312.99	-111.981	2312.99	-120.137
		2312.99	-120.137	2312.99	-120.137
				2312.99	-120.137
				2314.45	-102.682
				2314.45	-102.682
				2314.45	-102.682
				2315.92	-108.422
				2315.92	-108.422
				2315.92	-108.422
				2317.38	-114.461
				2317.38	-114.461
				2317.38	-114.461
				2318.85	-107.63
				2318.85	-107.63
				2318.85	-107.63
		2320.31	-106.648	2320.31	-117.087
		2320.31	-117.087	2320.31	-117.087
				2320.31	-117.087
		2321.78	-110.291	2321.78	-111.551
		2321.78	-111.551	2321.78	-111.551
				2321.78	-111.551
				2323.24	-105.771
				2323.24	-105.771
				2323.24	-105.771
				2324.71	-108.402
				2324.71	-108.402
				2324.71	-108.402
		2326.17	-120.859	2326.17	-127.599
		2326.17	-127.599	2326.17	-127.599
				2326.17	-127.599
				2327.64	-111.292
				2327.64	-111.292
				2327.64	-111.292
				2329.1	-109.569
				2329.1	-109.569
				2329.1	-109.569
		2330.57	-109.023	2330.57	-116.238
		2330.57	-116.238	2330.57	-116.238
				2330.57	-116.238
		2332.03	-109.133	2332.03	-119.692
		2332.03	-119.692	2332.03	-119.692
				2332.03	-119.692
				2333.5	-111.011
				2333.5	-111.011
				2333.5	-111.011
		2334.96	-107.026	2334.96	-111.821
		2334.96	-111.821	2334.96	-111.821
				2334.96	-111.821
		2336.43	-117.849	2336.43	-122.562
		2336.43	-122.562	2336.43	-122.562
				2336.43	-122.562
		2337.89	-113.83	2337.89	-115.122
		2337.89	-115.122	2337.89	-115.122
				2337.89	-115.122
				2339.36	-114.892
				2339.36	-114.892
				2339.36	-114.892
				2340.82	-111.966
				2340.82	-111.966
				2340.82	-111.966
		2342.29	-111.695	2342.29	-115.589
		2342.29	-115.589	2342.29	-115.589
				2342.29	-115.589
		2343.75	-105.905	2343.75	-121.119
		2343.75	-121.119	2343.75	-121.119
				2343.75	-121.119
				2345.21	-112.439
				2345.21	-112.439
				2345.21	-112.439
				2346.68	-114.102
				2346.68	-114.102
				2346.68	-114.102
				2348.14	-109.817
				2348.14	-109.817
				2348.14	-109.817
				2349.61	-106.223
				2349.61	-106.223
				2349.61	-106.223
		2351.07	-108.218	2351.07	-118.279
		2351.07	-118.279	2351.07	-118.279
				2351.07	-118.279
		2352.54	-105.365	2352.54	-110.174
		2352.54	-110.174	2352.54	-110.174
				2352.54	-110.174
		2354	-111.622	2354	-122.898
		2354	-122.898	2354	-122.898
				2354	-122.898
				2355.47	-112.239
				2355.47	-112.239
				2355.47	-112.239
				2356.93	-116.805
				2356.93	-116.805
				2356.93	-116.805
		2358.4	-112.194	2358.4	-126.377
		2358.4	-126.377	2358.4	-126.377
				2358.4	-126.377
		2359.86	-107.931	2359.86	-117.604
		2359.86	-117.604	2359.86	-117.604
				2359.86	-117.604
				2361.33	-110.715
				2361.33	-110.715
				2361.33	-110.715
				2362.79	-114.685
				2362.79	-114.685
				2362.79	-114.685
		2364.26	-109.323	2364.26	-121.494
		2364.26	-121.494	2364.26	-121.494
				2364.26	-121.494
				2365.72	-113.339
				2365.72	-113.339
				2365.72	-113.339
				2367.19	-111.363
				2367.19	-111.363
				2367.19	-111.363
				2368.65	-113.271
				2368.65	-113.271
				2368.65	-113.271
		2370.12	-108.744	2370.12	-112.011
		2370.12	-112.011	2370.12	-112.011
				2370.12	-112.011
				2371.58	-112.817
				2371.58	-112.817
				2371.58	-112.817
		2373.05	-109.892	2373.05	-116.39
		2373.05	-116.39	2373.05	-116.39
				2373.05	-116.39
				2374.51	-110.391
				2374.51	-110.391
				2374.51	-110.391
		2375.98	-107.464	2375.98	-109.149
		2375.98	-109.149	2375.98	-109.149
				2375.98	-109.149
				2377.44	-108.39
				2377.44	-108.39
				2377.44	-108.39
				2378.91	-111.385
				2378.91	-111.385
				2378.91	-111.385
				2380.37	-115.35
				2380.37	-115.35
				2380.37	-115.35
				2381.84	-118.4
				2381.84	-118.4
				2381.84	-118.4
		2383.3	-105.438	2383.3	-110.037
		2383.3	-110.037	2383.3	-110.037
				2383.3	-110.037
				2384.77	-116.323
				2384.77	-116.323
				2384.77	-116.323
		2386.23	-107.304	2386.23	-117.824
		2386.23	-117.824	2386.23	-117.824
				2386.23	-117.824
		2387.7	-109.457	2387.7	-112.299
		2387.7	-112.299	2387.7	-112.299
				2387.7	-112.299
				2389.16	-110.247
				2389.16	-110.247
				2389.16	-110.247
				2390.63	-114.095
				2390.63	-114.095
				2390.63	-114.095
				2392.09	-110.807
				2392.09	-110.807
				2392.09	-110.807
				2393.55	-107.892
				2393.55	-107.892
				2393.55	-107.892
		2395.02	-109.521	2395.02	-117.828
		2395.02	-117.828	2395.02	-117.828
				2395.02	-117.828
				2396.48	-110.015
				2396.48	-110.015
				2396.48	-110.015
		2397.95	-109.167	2397.95	-114.11
		2397.95	-114.11	2397.95	-114.11
				2397.95	-114.11
		2399.41	-109.284	2399.41	-111.74
		2399.41	-111.74	2399.41	-111.74
				2399.41	-111.74
				2400.88	-110.677
				2400.88	-110.677
				2400.88	-110.677
		2402.34	-115.959	2402.34	-119.87
		2402.34	-119.87	2402.34	-119.87
				2402.34	-119.87
				2403.81	-109.102
				2403.81	-109.102
				2403.81	-109.102
		2405.27	-106.801	2405.27	-109.971
		2405.27	-109.971	2405.27	-109.971
				2405.27	-109.971
				2406.74	-111.125
				2406.74	-111.125
				2406.74	-111.125
				2408.2	-118.081
				2408.2	-118.081
				2408.2	-118.081
				2409.67	-109.028
				2409.67	-109.028
				2409.67	-109.028
		2411.13	-110.351	2411.13	-115.213
		2411.13	-115.213	2411.13	-115.213
				2411.13	-115.213
		2412.6	-107.723	2412.6	-114.708
		2412.6	-114.708	2412.6	-114.708
				2412.6	-114.708
				2414.06	-113.728
				2414.06	-113.728
				2414.06	-113.728
		2415.53	-105.473	2415.53	-130.477
		2415.53	-130.477	2415.53	-130.477
				2415.53	-130.477
		2416.99	-108.277	2416.99	-114.646
		2416.99	-114.646	2416.99	-114.646
				2416.99	-114.646
		2418.46	-109.674	2418.46	-111.216
		2418.46	-111.216	2418.46	-111.216
				2418.46	-111.216
		2419.92	-105.889	2419.92	-112.867
		2419.92	-112.867	2419.92	-112.867
				2419.92	-112.867
				2421.39	-109.661
				2421.39	-109.661
				2421.39	-109.661
		2422.85	-111.196	2422.85	-126.502
		2422.85	-126.502	2422.85	-126.502
				2422.85	-126.502
				2424.32	-111.996
				2424.32	-111.996
				2424.32	-111.996
		2425.78	-108.071	2425.78	-116.625
		2425.78	-116.625	2425.78	-116.625
				2425.78	-116.625
				2427.25	-110.433
				2427.25	-110.433
				2427.25	-110.433
		2428.71	-112.781	2428.71	-115.219
		2428.71	-115.219	2428.71	-115.219
				2428.71	-115.219
		2430.18	-104.166	2430.18	-114.492
		2430.18	-114.492	2430.18	-114.492
				2430.18	-114.492
		2431.64	-106.798	2431.64	-117.147
		2431.64	-117.147	2431.64	-117.147
				2431.64	-117.147
		2433.11	-117.838	2433.11	-120.535
		2433.11	-120.535	2433.11	-120.535
				2433.11	-120.535
				2434.57	-111.362
				2434.57	-111.362
				2434.57	-111.362
				2436.04	-112.58
				2436.04	-112.58
				2436.04	-112.58
		2437.5	-104.13	2437.5	-112.77
		2437.5	-112.77	2437.5	-112.77
				2437.5	-112.77
				2438.96	-112.382
				2438.96	-112.382
				2438.96	-112.382
				2440.43	-106.78
				2440.43	-106.78
				2440.43	-106.78
		2441.89	-113.497	2441.89	-118.731
		2441.89	-118.731	2441.89	-118.731
				2441.89	-118.731
				2443.36	-112.77
				2443.36	-112.77
				2443.36	-112.77
				2444.82	-107.843
				2444.82	-107.843
				2444.82	-107.843
		2446.29	-114.307	2446.29	-118.1
		2446.29	-118.1	2446.29	-118.1
				2446.29	-118.1
		2447.75	-106.013	2447.75	-109.566
		2447.75	-109.566	2447.75	-109.566
				2447.75	-109.566
				2449.22	-107.695
				2449.22	-107.695
				2449.22	-107.695
				2450.68	-120.606
				2450.68	-120.606
				2450.68	-120.606
				2452.15	-112.693
				2452.15	-112.693
				2452.15	-112.693
				2453.61	-114.783
				2453.61	-114.783
				2453.61	-114.783
		2455.08	-108.04	2455.08	-109.168
		2455.08	-109.168	2455.08	-109.168
				2455.08	-109.168
		2456.54	-107.927	2456.54	-111.165
		2456.54	-111.165	2456.54	-111.165
				2456.54	-111.165
				2458.01	-113.421
				2458.01	-113.421
				2458.01	-113.421
		2459.47	-106.959	2459.47	-111.008
		2459.47	-111.008	2459.47	-111.008
				2459.47	-111.008
		2460.94	-109.05	2460.94	-121.179
		2460.94	-121.179	2460.94	-121.179
				2460.94	-121.179
		2462.4	-117.241	2462.4	-120.899
		2462.4	-120.899	2462.4	-120.899
				2462.4	-120.899
				2463.87	-105.7
				2463.87	-105.7
				2463.87	-105.7
		2465.33	-103.536	2465.33	-108.397
		2465.33	-108.397	2465.33	-108.397
				2465.33	-108.397
				2466.8	-110.228
				2466.8	-110.228
				2466.8	-110.228
		2468.26	-105.768	2468.26	-124.843
		2468.26	-124.843	2468.26	-124.843
				2468.26	-124.843
				2469.73	-116.156
				2469.73	-116.156
				2469.73	-116.156
				2471.19	-110.964
				2471.19	-110.964
				2471.19	-110.964
				2472.66	-108.87
				2472.66	-108.87
				2472.66	-108.87
		2474.12	-107.159	2474.12	-111.716
		2474.12	-111.716	2474.12	-111.716
				2474.12	-111.716
		2475.59	-108.108	2475.59	-122.31
		2475.59	-122.31	2475.59	-122.31
				2475.59	-122.31
				2477.05	-109.958
				2477.05	-109.958
				2477.05	-109.958
		2478.52	-114.156	2478.52	-122.518
		2478.52	-122.518	2478.52	-122.518
				2478.52	-122.518
		2479.98	-112.991	2479.98	-114.891
		2479.98	-114.891	2479.98	-114.891
				2479.98	-114.891
		2481.45	-109.324	2481.45	-119.564
		2481.45	-119.564	2481.45	-119.564
				2481.45	-119.564
		2482.91	-108.789	2482.91	-114.317
		2482.91	-114.317	2482.91	-114.317
				2482.91	-114.317
		2484.38	-108.953	2484.38	-114.145
		2484.38	-114.145	2484.38	-114.145
				2484.38	-114.145
				2485.84	-108.998
				2485.84	-108.998
				2485.84	-108.998
				2487.3	-104.456
				2487.3	-104.456
				2487.3	-104.456
		2488.77	-107.669	2488.77	-123.47
		2488.77	-123.47	2488.77	-123.47
				2488.77	-123.47
		2490.23	-111.038	2490.23	-113.139
		2490.23	-113.139	2490.23	-113.139
				2490.23	-113.139
		2491.7	-101.273	2491.7	-107.164
		2491.7	-107.164	2491.7	-107.164
				2491.7	-107.164
				2493.16	-109.916
				2493.16	-109.916
				2493.16	-109.916
		2494.63	-104.471	2494.63	-105.909
		2494.63	-105.909	2494.63	-105.909
				2494.63	-105.909
		2496.09	-111.04	2496.09	-117.409
		2496.09	-117.409	2496.09	-117.409
				2496.09	-117.409
		2497.56	-110.05	2497.56	-113.723
		2497.56	-113.723	2497.56	-113.723
				2497.56	-113.723
		2499.02	-111.127	2499.02	-116.326
		2499.02	-116.326	2499.02	-116.326
				2499.02	-116.326
		2500.49	-109.342	2500.49	-111.61
		2500.49	-111.61	2500.49	-111.61
				2500.49	-111.61
				2501.95	-107.573
				2501.95	-107.573
				2501.95	-107.573
				2503.42	-108.114
				2503.42	-108.114
				2503.42	-108.114
		2504.88	-116.054	2504.88	-118.407
		2504.88	-118.407	2504.88	-118.407
				2504.88	-118.407
				2506.35	-113.135
				2506.35	-113.135
				2506.35	-113.135
		2507.81	-115.343	2507.81	-121.698
		2507.81	-121.698	2507.81	-121.698
				2507.81	-121.698
		2509.28	-105.678	2509.28	-107.183
		2509.28	-107.183	2509.28	-107.183
				2509.28	-107.183
		2510.74	-108.123	2510.74	-110.631
		2510.74	-110.631	2510.74	-110.631
				2510.74	-110.631
		2512.21	-116.892	2512.21	-122.665
		2512.21	-122.665	2512.21	-122.665
				2512.21	-122.665
		2513.67	-107.506	2513.67	-111.154
		2513.67	-111.154	2513.67	-111.154
				2513.67	-111.154
				2515.14	-109.314
				2515.14	-109.314
				2515.14	-109.314
		2516.6	-107.265	2516.6	-109.819
		2516.6	-109.819	2516.6	-109.819
				2516.6	-109.819
				2518.07	-111.023
				2518.07	-111.023
				2518.07	-111.023
				2519.53	-111.945
				2519.53	-111.945
				2519.53	-111.945
		2521	-108.265	2521	-115.65
		2521	-115.65	2521	-115.65
				2521	-115.65
		2522.46	-107.16	2522.46	-118.75
		2522.46	-118.75	2522.46	-118.75
				2522.46	-118.75
		2523.93	-112.135	2523.93	-118.081
		2523.93	-118.081	2523.93	-118.081
				2523.93	-118.081
		2525.39	-110.096	2525.39	-111.129
		2525.39	-111.129	2525.39	-111.129
				2525.39	-111.129
				2526.86	-107.239
				2526.86	-107.239
				2526.86	-107.239
				2528.32	-111.63
				2528.32	-111.63
				2528.32	-111.63
				2529.79	-107.441
				2529.79	-107.441
				2529.79	-107.441
				2531.25	-107.731
				2531.25	-107.731
				2531.25	-107.731
		2532.71	-105.472	2532.71	-118.737
		2532.71	-118.737	2532.71	-118.737
				2532.71	-118.737
				2534.18	-110.566
				2534.18	-110.566
				2534.18	-110.566
		2535.64	-109.73	2535.64	-122.745
		2535.64	-122.745	2535.64	-122.745
				2535.64	-122.745
				2537.11	-109.541
				2537.11	-109.541
				2537.11	-109.541
		2538.57	-105.29	2538.57	-121.319
		2538.57	-121.319	2538.57	-121.319
				2538.57	-121.319
		2540.04	-104.418	2540.04	-110.81
		2540.04	-110.81	2540.04	-110.81
				2540.04	-110.81
		2541.5	-114.07	2541.5	-117.856
		2541.5	-117.856	2541.5	-117.856
				2541.5	-117.856
		2542.97	-110.65	2542.97	-119.973
		2542.97	-119.973	2542.97	-119.973
				2542.97	-119.973
				2544.43	-109.303
				2544.43	-109.303
				2544.43	-109.303
		2545.9	-116.568	2545.9	-118.824
		2545.9	-118.824	2545.9	-118.824
				2545.9	-118.824
				2547.36	-113.43
				2547.36	-113.43
				2547.36	-113.43
				2548.83	-114.281
				2548.83	-114.281
				2548.83	-114.281
				2550.29	-107.011
				2550.29	-107.011
				2550.29	-107.011
				2551.76	-112.074
				2551.76	-112.074
				2551.76	-112.074
		2553.22	-114.433	2553.22	-119.664
		2553.22	-119.664	2553.22	-119.664
				2553.22	-119.664
				2554.69	-106.387
				2554.69	-106.387
				2554.69	-106.387
		2556.15	-111.395	2556.15	-113.053
		2556.15	-113.053	2556.15	-113.053
				2556.15	-113.053
		2557.62	-106.513	2557.62	-112.303
		2557.62	-112.303	2557.62	-112.303
				2557.62	-112.303
		2559.08	-108.48	2559.08	-110.411
		2559.08	-110.411	2559.08	-110.411
				2559.08	-110.411
				2560.55	-110.281
				2560.55	-110.281
				2560.55	-110.281
				2562.01	-115.808
				2562.01	-115.808
				2562.01	-115.808
				2563.48	-114.089
				2563.48	-114.089
				2563.48	-114.089
				2564.94	-107.948
				2564.94	-107.948
				2564.94	-107.948
				2566.41	-107.406
				2566.41	-107.406
				2566.41	-107.406
		2567.87	-102.86	2567.87	-106.604
		2567.87	-106.604	2567.87	-106.604
				2567.87	-106.604
				2569.34	-106.603
				2569.34	-106.603
				2569.34	-106.603
		2570.8	-112.921	2570.8	-121.438
		2570.8	-121.438	2570.8	-121.438
				2570.8	-121.438
		2572.27	-113.555	2572.27	-120.901
		2572.27	-120.901	2572.27	-120.901
				2572.27	-120.901
				2573.73	-116.097
				2573.73	-116.097
				2573.73	-116.097
		2575.2	-115.821	2575.2	-124.774
		2575.2	-124.774	2575.2	-124.774
				2575.2	-124.774
		2576.66	-105.123	2576.66	-118.941
		2576.66	-118.941	2576.66	-118.941
				2576.66	-118.941
				2578.13	-113.516
				2578.13	-113.516
				2578.13	-113.516
				2579.59	-107.836
				2579.59	-107.836
				2579.59	-107.836
				2581.05	-107.647
				2581.05	-107.647
				2581.05	-107.647
		2582.52	-109.505	2582.52	-123.553
		2582.52	-123.553	2582.52	-123.553
				2582.52	-123.553
		2583.98	-106.158	2583.98	-110.607
		2583.98	-110.607	2583.98	-110.607
				2583.98	-110.607
				2585.45	-117.634
				2585.45	-117.634
				2585.45	-117.634
				2586.91	-104.787
				2586.91	-104.787
				2586.91	-104.787
				2588.38	-111.364
				2588.38	-111.364
				2588.38	-111.364
				2589.84	-112.005
				2589.84	-112.005
				2589.84	-112.005
				2591.31	-111.344
				2591.31	-111.344
				2591.31	-111.344
				2592.77	-111
				2592.77	-111
				2592.77	-111
		2594.24	-108.073	2594.24	-111.561
		2594.24	-111.561	2594.24	-111.561
				2594.24	-111.561
				2595.7	-110.378
				2595.7	-110.378
				2595.7	-110.378
		2597.17	-106.353	2597.17	-121.428
		2597.17	-121.428	2597.17	-121.428
				2597.17	-121.428
				2598.63	-110.799
				2598.63	-110.799
				2598.63	-110.799
		2600.1	-113.002	2600.1	-116.457
		2600.1	-116.457	2600.1	-116.457
				2600.1	-116.457
		2601.56	-105.318	2601.56	-112.631
		2601.56	-112.631	2601.56	-112.631
				2601.56	-112.631
		2603.03	-108.155	2603.03	-112.824
		2603.03	-112.824	2603.03	-112.824
				2603.03	-112.824
		2604.49	-106.729	2604.49	-114.919
		2604.49	-114.919	2604.49	-114.919
				2604.49	-114.919
				2605.96	-116.856
				2605.96	-116.856
				2605.96	-116.856
				2607.42	-107.001
				2607.42	-107.001
				2607.42	-107.001
		2608.89	-110.901	2608.89	-113.428
		2608.89	-113.428	2608.89	-113.428
				2608.89	-113.428
				2610.35	-110.29
				2610.35	-110.29
				2610.35	-110.29
		2611.82	-120.794	2611.82	-121.798
		2611.82	-121.798	2611.82	-121.798
				2611.82	-121.798
		2613.28	-109.329	2613.28	-110.833
		2613.28	-110.833	2613.28	-110.833
				2613.28	-110.833
		2614.75	-107.353	2614.75	-113.948
		2614.75	-113.948	2614.75	-113.948
				2614.75	-113.948
		2616.21	-109.431	2616.21	-124.332
		2616.21	-124.332	2616.21	-124.332
				2616.21	-124.332
		2617.68	-107.95	2617.68	-122.092
		2617.68	-122.092	2617.68	-122.092
				2617.68	-122.092
				2619.14	-110.696
				2619.14	-110.696
				2619.14	-110.696
				2620.61	-116.288
				2620.61	-116.288
				2620.61	-116.288
				2622.07	-106.061
				2622.07	-106.061
				2622.07	-106.061
		2623.54	-104.109	2623.54	-107.313
		2623.54	-107.313	2623.54	-107.313
				2623.54	-107.313
		2625	-112.449	2625	-125.612
		2625	-125.612	2625	-125.612
				2625	-125.612
		2626.46	-114.676	2626.46	-120.49
		2626.46	-120.49	2626.46	-120.49
				2626.46	-120.49
		2627.93	-103.606	2627.93	-111.985
		2627.93	-111.985	2627.93	-111.985
				2627.93	-111.985
				2629.39	-120.368
				2629.39	-120.368
				2629.39	-120.368
		2630.86	-109.81	2630.86	-111.005
		2630.86	-111.005	2630.86	-111.005
				2630.86	-111.005
		2632.32	-107.3	2632.32	-115.014
		2632.32	-115.014	2632.32	-115.014
				2632.32	-115.014
				2633.79	-111.689
				2633.79	-111.689
				2633.79	-111.689
		2635.25	-112.054	2635.25	-122.81
		2635.25	-122.81	2635.25	-122.81
				2635.25	-122.81
				2636.72	-106.772
				2636.72	-106.772
				2636.72	-106.772
		2638.18	-113.468	2638.18	-116.21
		2638.18	-116.21	2638.18	-116.21
				2638.18	-116.21
		2639.65	-110.401	2639.65	-111.544
		2639.65	-111.544	2639.65	-111.544
				2639.65	-111.544
				2641.11	-112.624
				2641.11	-112.624
				2641.11	-112.624
		2642.58	-110.354	2642.58	-128.634
		2642.58	-128.634	2642.58	-128.634
				2642.58	-128.634
		2644.04	-106.242	2644.04	-123.14
		2644.04	-123.14	2644.04	-123.14
				2644.04	-123.14
		2645.51	-109.106	2645.51	-119.62
		2645.51	-119.62	2645.51	-119.62
				2645.51	-119.62
		2646.97	-104.105	2646.97	-112.59
		2646.97	-112.59	2646.97	-112.59
				2646.97	-112.59
				2648.44	-116.233
				2648.44	-116.233
				2648.44	-116.233
				2649.9	-111.757
				2649.9	-111.757
				2649.9	-111.757
		2651.37	-108.388	2651.37	-117.564
		2651.37	-117.564	2651.37	-117.564
				2651.37	-117.564
				2652.83	-117.126
				2652.83	-117.126
				2652.83	-117.126
		2654.3	-106.843	2654.3	-121.19
		2654.3	-121.19	2654.3	-121.19
				2654.3	-121.19
		2655.76	-106.565	2655.76	-121.049
		2655.76	-121.049	2655.76	-121.049
				2655.76	-121.049
				2657.23	-106.147
				2657.23	-106.147
				2657.23	-106.147
				2658.69	-110.788
				2658.69	-110.788
				2658.69	-110.788
		2660.16	-108.589	2660.16	-112.761
		2660.16	-112.761	2660.16	-112.761
				2660.16	-112.761
		2661.62	-109.357	2661.62	-116.292
		2661.62	-116.292	2661.62	-116.292
				2661.62	-116.292
		2663.09	-107.18	2663.09	-116.4
		2663.09	-116.4	2663.09	-116.4
				2663.09	-116.4
		2664.55	-113.129	2664.55	-114.997
		2664.55	-114.997	2664.55	-114.997
				2664.55	-114.997
				2666.02	-107.115
				2666.02	-107.115
				2666.02	-107.115
		2667.48	-111.267	2667.48	-113.791
		2667.48	-113.791	2667.48	-113.791
				2667.48	-113.791
		2668.95	-107.854	2668.95	-131.8
		2668.95	-131.8	2668.95	-131.8
				2668.95	-131.8
		2670.41	-107.254	2670.41	-110.764
		2670.41	-110.764	2670.41	-110.764
				2670.41	-110.764
		2671.88	-109.507	2671.88	-111.409
		2671.88	-111.409	2671.88	-111.409
				2671.88	-111.409
				2673.34	-111.222
				2673.34	-111.222
				2673.34	-111.222
		2674.8	-108.13	2674.8	-110.275
		2674.8	-110.275	2674.8	-110.275
				2674.8	-110.275
		2676.27	-116.618	2676.27	-121.424
		2676.27	-121.424	2676.27	-121.424
				2676.27	-121.424
				2677.73	-107.982
				2677.73	-107.982
				2677.73	-107.982
		2679.2	-105.813	2679.2	-113.246
		2679.2	-113.246	2679.2	-113.246
				2679.2	-113.246
		2680.66	-111.504	2680.66	-113.218
		2680.66	-113.218	2680.66	-113.218
				2680.66	-113.218
				2682.13	-111.753
				2682.13	-111.753
				2682.13	-111.753
		2683.59	-106.469	2683.59	-115.073
		2683.59	-115.073	2683.59	-115.073
				2683.59	-115.073
		2685.06	-107.588	2685.06	-117.535
		2685.06	-117.535	2685.06	-117.535
				2685.06	-117.535
		2686.52	-104.282	2686.52	-114.635
		2686.52	-114.635	2686.52	-114.635
				2686.52	-114.635
				2687.99	-107.473
				2687.99	-107.473
				2687.99	-107.473
				2689.45	-109.18
				2689.45	-109.18
				2689.45	-109.18
				2690.92	-104.658
				2690.92	-104.658
				2690.92	-104.658
				2692.38	-108.676
				2692.38	-108.676
				2692.38	-108.676
		2693.85	-110.478	2693.85	-115.384
		2693.85	-115.384	2693.85	-115.384
				2693.85	-115.384
				2695.31	-114.019
				2695.31	-114.019
				2695.31	-114.019
		2696.78	-107.779	2696.78	-110.34
		2696.78	-110.34	2696.78	-110.34
				2696.78	-110.34
		2698.24	-105.082	2698.24	-120.025
		2698.24	-120.025	2698.24	-120.025
				2698.24	-120.025
		2699.71	-109.534	2699.71	-111.851
		2699.71	-111.851	2699.71	-111.851
				2699.71	-111.851
				2701.17	-113.391
				2701.17	-113.391
				2701.17	-113.391
		2702.64	-110.999	2702.64	-115.055
		2702.64	-115.055	2702.64	-115.055
				2702.64	-115.055
		2704.1	-106.786	2704.1	-113.026
		2704.1	-113.026	2704.1	-113.026
				2704.1	-113.026
		2705.57	-109.325	2705.57	-115.744
		2705.57	-115.744	2705.57	-115.744
				2705.57	-115.744
		2707.03	-108.54	2707.03	-110.52
		2707.03	-110.52	2707.03	-110.52
				2707.03	-110.52
		2708.5	-111.46	2708.5	-122.7
		2708.5	-122.7	2708.5	-122.7
				2708.5	-122.7
		2709.96	-112.203	2709.96	-123.924
		2709.96	-123.924	2709.96	-123.924
				2709.96	-123.924
				2711.43	-112.939
				2711.43	-112.939
				2711.43	-112.939
		2712.89	-105.196	2712.89	-115.375
		2712.89	-115.375	2712.89	-115.375
				2712.89	-115.375
		2714.36	-107.792	2714.36	-123.489
		2714.36	-123.489	2714.36	-123.489
				2714.36	-123.489
				2715.82	-106.388
				2715.82	-106.388
				2715.82	-106.388
				2717.29	-108.941
				2717.29	-108.941
				2717.29	-108.941
				2718.75	-108.837
				2718.75	-108.837
				2718.75	-108.837
				2720.21	-109.256
				2720.21	-109.256
				2720.21	-109.256
				2721.68	-106.977
				2721.68	-106.977
				2721.68	-106.977
		2723.14	-109.794	2723.14	-111.364
		2723.14	-111.364	2723.14	-111.364
				2723.14	-111.364
				2724.61	-105.554
				2724.61	-105.554
				2724.61	-105.554
				2726.07	-114.778
				2726.07	-114.778
				2726.07	-114.778
		2727.54	-107.766	2727.54	-113.932
		2727.54	-113.932	2727.54	-113.932
				2727.54	-113.932
		2729	-106.461	2729	-114.397
		2729	-114.397	2729	-114.397
				2729	-114.397
				2730.47	-111.499
				2730.47	-111.499
				2730.47	-111.499
		2731.93	-115.617	2731.93	-118.062
		2731.93	-118.062	2731.93	-118.062
				2731.93	-118.062
				2733.4	-109.725
				2733.4	-109.725
				2733.4	-109.725
		2734.86	-105.911	2734.86	-110.865
		2734.86	-110.865	2734.86	-110.865
				2734.86	-110.865
		2736.33	-108.271	2736.33	-112.718
		2736.33	-112.718	2736.33	-112.718
				2736.33	-112.718
				2737.79	-108.501
				2737.79	-108.501
				2737.79	-108.501
		2739.26	-108.078	2739.26	-110.081
		2739.26	-110.081	2739.26	-110.081
				2739.26	-110.081
		2740.72	-110.1	2740.72	-129.723
		2740.72	-129.723	2740.72	-129.723
				2740.72	-129.723
				2742.19	-117.542
				2742.19	-117.542
				2742.19	-117.542
				2743.65	-109.808
				2743.65	-109.808
				2743.65	-109.808
		2745.12	-108.341	2745.12	-110.659
		2745.12	-110.659	2745.12	-110.659
				2745.12	-110.659
				2746.58	-107.53
				2746.58	-107.53
				2746.58	-107.53
				2748.05	-108.66
				2748.05	-108.66
				2748.05	-108.66
				2749.51	-107.527
				2749.51	-107.527
				2749.51	-107.527
		2750.98	-115.286	2750.98	-116.906
		2750.98	-116.906	2750.98	-116.906
				2750.98	-116.906
		2752.44	-115.126	2752.44	-118.321
		2752.44	-118.321	2752.44	-118.321
				2752.44	-118.321
				2753.91	-113.57
				2753.91	-113.57
				2753.91	-113.57
		2755.37	-105.268	2755.37	-111.674
		2755.37	-111.674	2755.37	-111.674
				2755.37	-111.674
				2756.84	-109.813
				2756.84	-109.813
				2756.84	-109.813
				2758.3	-114.16
				2758.3	-114.16
				2758.3	-114.16
		2759.77	-103.416	2759.77	-110.046
		2759.77	-110.046	2759.77	-110.046
				2759.77	-110.046
				2761.23	-114.588
				2761.23	-114.588
				2761.23	-114.588
				2762.7	-107.337
				2762.7	-107.337
				2762.7	-107.337
		2764.16	-108.804	2764.16	-115.39
		2764.16	-115.39	2764.16	-115.39
				2764.16	-115.39
				2765.63	-105.328
				2765.63	-105.328
				2765.63	-105.328
		2767.09	-108.278	2767.09	-123.134
		2767.09	-123.134	2767.09	-123.134
				2767.09	-123.134
				2768.55	-108.65
				2768.55	-108.65
				2768.55	-108.65
		2770.02	-112.381	2770.02	-113.862
		2770.02	-113.862	2770.02	-113.862
				2770.02	-113.862
				2771.48	-116.781
				2771.48	-116.781
				2771.48	-116.781
		2772.95	-107.279	2772.95	-112.041
		2772.95	-112.041	2772.95	-112.041
				2772.95	-112.041
				2774.41	-108.469
				2774.41	-108.469
				2774.41	-108.469
				2775.88	-109.571
				2775.88	-109.571
				2775.88	-109.571
		2777.34	-105.603	2777.34	-113.111
		2777.34	-113.111	2777.34	-113.111
				2777.34	-113.111
				2778.81	-110.129
				2778.81	-110.129
				2778.81	-110.129
		2780.27	-109.754	2780.27	-116.471
		2780.27	-116.471	2780.27	-116.471
				2780.27	-116.471
		2781.74	-114.738	2781.74	-116.372
		2781.74	-116.372	2781.74	-116.372
				2781.74	-116.372
				2783.2	-111.446
				2783.2	-111.446
				2783.2	-111.446
		2784.67	-107.333	2784.67	-115.651
		2784.67	-115.651	2784.67	-115.651
				2784.67	-115.651
				2786.13	-112.158
				2786.13	-112.158
				2786.13	-112.158
				2787.6	-105.788
				2787.6	-105.788
				2787.6	-105.788
		2789.06	-107.941	2789.06	-112.101
		2789.06	-112.101	2789.06	-112.101
				2789.06	-112.101
		2790.53	-120.382	2790.53	-123.117
		2790.53	-123.117	2790.53	-123.117
				2790.53	-123.117
				2791.99	-112.308
				2791.99	-112.308
				2791.99	-112.308
				2793.46	-107.387
				2793.46	-107.387
				2793.46	-107.387
				2794.92	-107.521
				2794.92	-107.521
				2794.92	-107.521
		2796.39	-110.873	2796.39	-115.916
		2796.39	-115.916	2796.39	-115.916
				2796.39	-115.916
		2797.85	-106.825	2797.85	-114.8
		2797.85	-114.8	2797.85	-114.8
				2797.85	-114.8
				2799.32	-103.489
				2799.32	-103.489
				2799.32	-103.489
				2800.78	-106.046
				2800.78	-106.046
				2800.78	-106.046
		2802.25	-111.95	2802.25	-118.645
		2802.25	-118.645	2802.25	-118.645
				2802.25	-118.645
				2803.71	-107.867
				2803.71	-107.867
				2803.71	-107.867
		2805.18	-105.707	2805.18	-108.804
		2805.18	-108.804	2805.18	-108.804
				2805.18	-108.804
		2806.64	-104.984	2806.64	-107.14
		2806.64	-107.14	2806.64	-107.14
				2806.64	-107.14
		2808.11	-111.478	2808.11	-117.167
		2808.11	-117.167	2808.11	-117.167
				2808.11	-117.167
		2809.57	-108.983	2809.57	-117.458
		2809.57	-117.458	2809.57	-117.458
				2809.57	-117.458
		2811.04	-106.925	2811.04	-110.416
		2811.04	-110.416	2811.04	-110.416
				2811.04	-110.416
		2812.5	-103.013	2812.5	-111.676
		2812.5	-111.676	2812.5	-111.676
				2812.5	-111.676
				2813.96	-108.504
				2813.96	-108.504
				2813.96	-108.504
		2815.43	-109.614	2815.43	-120.613
		2815.43	-120.613	2815.43	-120.613
				2815.43	-120.613
				2816.89	-105.811
				2816.89	-105.811
				2816.89	-105.811
				2818.36	-113.48
				2818.36	-113.48
				2818.36	-113.48
				2819.82	-109.845
				2819.82	-109.845
				2819.82	-109.845
				2821.29	-113.317
				2821.29	-113.317
				2821.29	-113.317
		2822.75	-106.126	2822.75	-108.847
		2822.75	-108.847	2822.75	-108.847
				2822.75	-108.847
		2824.22	-105.99	2824.22	-108.825
		2824.22	-108.825	2824.22	-108.825
				2824.22	-108.825
				2825.68	-105.557
				2825.68	-105.557
				2825.68	-105.557
		2827.15	-105.723	2827.15	-117.771
		2827.15	-117.771	2827.15	-117.771
				2827.15	-117.771
		2828.61	-101.597	2828.61	-104.903
		2828.61	-104.903	2828.61	-104.903
				2828.61	-104.903
				2830.08	-105.734
				2830.08	-105.734
				2830.08	-105.734
		2831.54	-106.836	2831.54	-118.001
		2831.54	-118.001	2831.54	-118.001
				2831.54	-118.001
				2833.01	-109.107
				2833.01	-109.107
				2833.01	-109.107
				2834.47	-108.249
				2834.47	-108.249
				2834.47	-108.249
				2835.94	-106.594
				2835.94	-106.594
				2835.94	-106.594
				2837.4	-111.899
				2837.4	-111.899
				2837.4	-111.899
				2838.87	-107.944
				2838.87	-107.944
				2838.87	-107.944
		2840.33	-113.127	2840.33	-116.542
		2840.33	-116.542	2840.33	-116.542
				2840.33	-116.542
		2841.8	-106.594	2841.8	-109.363
		2841.8	-109.363	2841.8	-109.363
				2841.8	-109.363
				2843.26	-111.349
				2843.26	-111.349
				2843.26	-111.349
		2844.73	-106.118	2844.73	-113.423
		2844.73	-113.423	2844.73	-113.423
				2844.73	-113.423
		2846.19	-108.075	2846.19	-112.361
		2846.19	-112.361	2846.19	-112.361
				2846.19	-112.361
		2847.66	-105.088	2847.66	-106.367
		2847.66	-106.367	2847.66	-106.367
				2847.66	-106.367
		2849.12	-107.984	2849.12	-111.411
		2849.12	-111.411	2849.12	-111.411
				2849.12	-111.411
				2850.59	-109.682
				2850.59	-109.682
				2850.59	-109.682
				2852.05	-106.655
				2852.05	-106.655
				2852.05	-106.655
				2853.52	-111.111
				2853.52	-111.111
				2853.52	-111.111
		2854.98	-104.871	2854.98	-127.191
		2854.98	-127.191	2854.98	-127.191
				2854.98	-127.191
		2856.45	-111.264	2856.45	-115.967
		2856.45	-115.967	2856.45	-115.967
				2856.45	-115.967
				2857.91	-110.809
				2857.91	-110.809
				2857.91	-110.809
				2859.38	-102.879
				2859.38	-102.879
				2859.38	-102.879
				2860.84	-108.979
				2860.84	-108.979
				2860.84	-108.979
				2862.3	-103.568
				2862.3	-103.568
				2862.3	-103.568
		2863.77	-107.59	2863.77	-113.477
		2863.77	-113.477	2863.77	-113.477
				2863.77	-113.477
				2865.23	-104.742
				2865.23	-104.742
				2865.23	-104.742
		2866.7	-106.375	2866.7	-112.288
		2866.7	-112.288	2866.7	-112.288
				2866.7	-112.288
		2868.16	-111.879	2868.16	-124.247
		2868.16	-124.247	2868.16	-124.247
				2868.16	-124.247
				2869.63	-107.019
				2869.63	-107.019
				2869.63	-107.019
		2871.09	-110.249	2871.09	-115.065
		2871.09	-115.065	2871.09	-115.065
				2871.09	-115.065
		2872.56	-105.746	2872.56	-111.233
		2872.56	-111.233	2872.56	-111.233
				2872.56	-111.233
				2874.02	-109.301
				2874.02	-109.301
				2874.02	-109.301
				2875.49	-105.277
				2875.49	-105.277
				2875.49	-105.277
		2876.95	-110.883	2876.95	-112.063
		2876.95	-112.063	2876.95	-112.063
				2876.95	-112.063
		2878.42	-106.509	2878.42	-110.643
		2878.42	-110.643	2878.42	-110.643
				2878.42	-110.643
		2879.88	-108.183	2879.88	-120.113
		2879.88	-120.113	2879.88	-120.113
				2879.88	-120.113
		2881.35	-111.507	2881.35	-112.625
		2881.35	-112.625	2881.35	-112.625
				2881.35	-112.625
		2882.81	-104.957	2882.81	-112.559
		2882.81	-112.559	2882.81	-112.559
				2882.81	-112.559
		2884.28	-109.002	2884.28	-113.179
		2884.28	-113.179	2884.28	-113.179
				2884.28	-113.179
				2885.74	-106.662
				2885.74	-106.662
				2885.74	-106.662
		2887.21	-108.92	2887.21	-115.479
		2887.21	-115.479	2887.21	-115.479
				2887.21	-115.479
				2888.67	-107.299
				2888.67	-107.299
				2888.67	-107.299
				2890.14	-125.37
				2890.14	-125.37
				2890.14	-125.37
		2891.6	-105.273	2891.6	-111.459
		2891.6	-111.459	2891.6	-111.459
				2891.6	-111.459
				2893.07	-107.917
				2893.07	-107.917
				2893.07	-107.917
				2894.53	-105.82
				2894.53	-105.82
				2894.53	-105.82
				2896	-104.933
				2896	-104.933
				2896	-104.933
				2897.46	-109.639
				2897.46	-109.639
				2897.46	-109.639
		2898.93	-103.633	2898.93	-110.669
		2898.93	-110.669	2898.93	-110.669
				2898.93	-110.669
		2900.39	-111.038	2900.39	-118.955
		2900.39	-118.955	2900.39	-118.955
				2900.39	-118.955
		2901.86	-106.653	2901.86	-114.217
		2901.86	-114.217	2901.86	-114.217
				2901.86	-114.217
		2903.32	-107.375	2903.32	-123.564
		2903.32	-123.564	2903.32	-123.564
				2903.32	-123.564
				2904.79	-105.141
				2904.79	-105.141
				2904.79	-105.141
				2906.25	-112.138
				2906.25	-112.138
				2906.25	-112.138
		2907.71	-107.329	2907.71	-113.162
		2907.71	-113.162	2907.71	-113.162
				2907.71	-113.162
		2909.18	-119.007	2909.18	-121.32
		2909.18	-121.32	2909.18	-121.32
				2909.18	-121.32
		2910.64	-107.336	2910.64	-114.394
		2910.64	-114.394	2910.64	-114.394
				2910.64	-114.394
				2912.11	-113.149
				2912.11	-113.149
				2912.11	-113.149
				2913.57	-111.8
				2913.57	-111.8
				2913.57	-111.8
		2915.04	-105.71	2915.04	-110.699
		2915.04	-110.699	2915.04	-110.699
				2915.04	-110.699
				2916.5	-103.292
				2916.5	-103.292
				2916.5	-103.292
				2917.97	-111.367
				2917.97	-111.367
				2917.97	-111.367
				2919.43	-108.095
				2919.43	-108.095
				2919.43	-108.095
		2920.9	-105.174	2920.9	-120.326
		2920.9	-120.326	2920.9	-120.326
				2920.9	-120.326
		2922.36	-107.847	2922.36	-113.275
		2922.36	-113.275	2922.36	-113.275
				2922.36	-113.275
				2923.83	-109.32
				2923.83	-109.32
				2923.83	-109.32
				2925.29	-108.378
				2925.29	-108.378
				2925.29	-108.378
		2926.76	-113.513	2926.76	-115.283
		2926.76	-115.283	2926.76	-115.283
				2926.76	-115.283
		2928.22	-103.501	2928.22	-112.23
		2928.22	-112.23	2928.22	-112.23
				2928.22	-112.23
				2929.69	-108.549
				2929.69	-108.549
				2929.69	-108.549
				2931.15	-109.407
				2931.15	-109.407
				2931.15	-109.407
				2932.62	-103.243
				2932.62	-103.243
				2932.62	-103.243
				2934.08	-113.355
				2934.08	-113.355
				2934.08	-113.355
		2935.55	-107.455	2935.55	-112.224
		2935.55	-112.224	2935.55	-112.224
				2935.55	-112.224
		2937.01	-114.611	2937.01	-115.721
		2937.01	-115.721	2937.01	-115.721
				2937.01	-115.721
		2938.48	-101.421	2938.48	-121.78
		2938.48	-121.78	2938.48	-121.78
				2938.48	-121.78
				2939.94	-102.954
				2939.94	-102.954
				2939.94	-102.954
		2941.41	-107.363	2941.41	-112.029
		2941.41	-112.029	2941.41	-112.029
				2941.41	-112.029
				2942.87	-103.872
				2942.87	-103.872
				2942.87	-103.872
				2944.34	-107.235
				2944.34	-107.235
				2944.34	-107.235
		2945.8	-108.004	2945.8	-113.493
		2945.8	-113.493	2945.8	-113.493
				2945.8	-113.493
				2947.27	-106.983
				2947.27	-106.983
				2947.27	-106.983
				2948.73	-108.539
				2948.73	-108.539
				2948.73	-108.539
				2950.2	-111.21
				2950.2	-111.21
				2950.2	-111.21
				2951.66	-105.161
				2951.66	-105.161
				2951.66	-105.161
		2953.13	-107.44	2953.13	-116.113
		2953.13	-116.113	2953.13	-116.113
				2953.13	-116.113
				2954.59	-106.076
				2954.59	-106.076
				2954.59	-106.076
		2956.05	-108.677	2956.05	-112.721
		2956.05	-112.721	2956.05	-112.721
				2956.05	-112.721
				2957.52	-103.003
				2957.52	-103.003
				2957.52	-103.003
		2958.98	-106.326	2958.98	-109.87
		2958.98	-109.87	2958.98	-109.87
				2958.98	-109.87
		2960.45	-104.684	2960.45	-105.709
		2960.45	-105.709	2960.45	-105.709
				2960.45	-105.709
		2961.91	-105.176	2961.91	-110.397
		2961.91	-110.397	2961.91	-110.397
				2961.91	-110.397
		2963.38	-110.01	2963.38	-112.112
		2963.38	-112.112	2963.38	-112.112
				2963.38	-112.112
				2964.84	-103.891
				2964.84	-103.891
				2964.84	-103.891
				2966.31	-101.016
				2966.31	-101.016
				2966.31	-101.016
				2967.77	-110.628
				2967.77	-110.628
				2967.77	-110.628
				2969.24	-110.033
				2969.24	-110.033
				2969.24	-110.033
				2970.7	-108.247
				2970.7	-108.247
				2970.7	-108.247
				2972.17	-105.311
				2972.17	-105.311
				2972.17	-105.311
				2973.63	-106.539
				2973.63	-106.539
				2973.63	-106.539
		2975.1	-114.733	2975.1	-118.052
		2975.1	-118.052	2975.1	-118.052
				2975.1	-118.052
		2976.56	-111.577	2976.56	-121.941
		2976.56	-121.941	2976.56	-121.941
				2976.56	-121.941
				2978.03	-106.102
				2978.03	-106.102
				2978.03	-106.102
		2979.49	-106.228	2979.49	-109.813
		2979.49	-109.813	2979.49	-109.813
				2979.49	-109.813
		2980.96	-103.983	2980.96	-109.823
		2980.96	-109.823	2980.96	-109.823
				2980.96	-109.823
				2982.42	-110.093
				2982.42	-110.093
				2982.42	-110.093
		2983.89	-109.329	2983.89	-115.859
		2983.89	-115.859	2983.89	-115.859
				2983.89	-115.859
				2985.35	-106.547
				2985.35	-106.547
				2985.35	-106.547
				2986.82	-111.294
				2986.82	-111.294
				2986.82	-111.294
		2988.28	-109.165	2988.28	-110.39
		2988.28	-110.39	2988.28	-110.39
				2988.28	-110.39
				2989.75	-106.895
				2989.75	-106.895
				2989.75	-106.895
		2991.21	-100.384	2991.21	-121.216
		2991.21	-121.216	2991.21	-121.216
				2991.21	-121.216
		2992.68	-104.966	2992.68	-111.38
		2992.68	-111.38	2992.68	-111.38
				2992.68	-111.38
				2994.14	-106.708
				2994.14	-106.708
				2994.14	-106.708
		2995.61	-102.628	2995.61	-105.08
		2995.61	-105.08	2995.61	-105.08
				2995.61	-105.08
		2997.07	-107.355	2997.07	-112.894
		2997.07	-112.894	2997.07	-112.894
				2997.07	-112.894
		2998.54	-106.376	2998.54	-115.61
		2998.54	-115.61	2998.54	-115.61
				2998.54	-115.61
