"Spectrum X(f) of voice coil displacement"					
"Signal lines"		"Noise + Distortions"		"Noise floor"	
"Frequency [Hz]"	"[mm]"	"Frequency [Hz]"	"[mm]"	"Frequency [Hz]"	"[mm]"
1.46484	0.0143445			1.46484	0.0019918
1.46484	0.0019918			1.46484	0.0019918
				1.46484	0.0019918
2.92969	0.0134442			2.92969	0.000829724
2.92969	0.000829724			2.92969	0.000829724
				2.92969	0.000829724
4.39453	0.00907014			4.39453	0.000269817
4.39453	0.000269817			4.39453	0.000269817
				4.39453	0.000269817
5.85938	0.0102299			5.85938	0.000568465
5.85938	0.000568465			5.85938	0.000568465
				5.85938	0.000568465
7.32422	0.0101645			7.32422	0.000474551
7.32422	0.000474551			7.32422	0.000474551
				7.32422	0.000474551
8.78906	0.0103823			8.78906	0.000265168
8.78906	0.000265168			8.78906	0.000265168
				8.78906	0.000265168
10.2539	0.0101772			10.2539	0.000326079
10.2539	0.000326079			10.2539	0.000326079
				10.2539	0.000326079
11.7188	0.00968442			11.7188	0.000186857
11.7188	0.000186857			11.7188	0.000186857
				11.7188	0.000186857
13.1836	0.00987995			13.1836	0.000229247
13.1836	0.000229247			13.1836	0.000229247
				13.1836	0.000229247
14.6484	0.00946148			14.6484	0.000165932
14.6484	0.000165932			14.6484	0.000165932
				14.6484	0.000165932
16.1133	0.00905417			16.1133	0.000207166
16.1133	0.000207166			16.1133	0.000207166
				16.1133	0.000207166
17.5781	0.00898287			17.5781	6.61535e-005
17.5781	6.61535e-005			17.5781	6.61535e-005
				17.5781	6.61535e-005
19.043	0.00879633			19.043	0.00026004
19.043	0.00026004			19.043	0.00026004
				19.043	0.00026004
20.5078	0.00860186			20.5078	7.34403e-005
20.5078	7.34403e-005			20.5078	7.34403e-005
				20.5078	7.34403e-005
21.9727	0.00849275			21.9727	0.000189434
21.9727	0.000189434			21.9727	0.000189434
				21.9727	0.000189434
23.4375	0.00811035			23.4375	4.36599e-005
23.4375	4.36599e-005			23.4375	4.36599e-005
				23.4375	4.36599e-005
24.9023	0.00781436			24.9023	6.28458e-005
24.9023	6.28458e-005			24.9023	6.28458e-005
				24.9023	6.28458e-005
26.3672	0.00764121			26.3672	0.000292771
26.3672	0.000292771			26.3672	0.000292771
				26.3672	0.000292771
27.832	0.00751178			27.832	0.000184827
27.832	0.000184827			27.832	0.000184827
				27.832	0.000184827
29.2969	0.0072813			29.2969	0.000257722
29.2969	0.000257722			29.2969	0.000257722
				29.2969	0.000257722
30.7617	0.00702338			30.7617	0.0001206
30.7617	0.0001206			30.7617	0.0001206
				30.7617	0.0001206
32.2266	0.0068531			32.2266	0.000104934
32.2266	0.000104934			32.2266	0.000104934
				32.2266	0.000104934
33.6914	0.00665575			33.6914	8.40804e-005
33.6914	8.40804e-005			33.6914	8.40804e-005
				33.6914	8.40804e-005
35.1563	0.00647701			35.1563	0.000134411
35.1563	0.000134411			35.1563	0.000134411
				35.1563	0.000134411
36.6211	0.00620225			36.6211	6.94236e-005
36.6211	6.94236e-005			36.6211	6.94236e-005
				36.6211	6.94236e-005
38.0859	0.00618762			38.0859	9.13938e-005
38.0859	9.13938e-005			38.0859	9.13938e-005
				38.0859	9.13938e-005
39.5508	0.00607348			39.5508	6.79403e-005
39.5508	6.79403e-005			39.5508	6.79403e-005
				39.5508	6.79403e-005
41.0156	0.00584972			41.0156	8.77258e-005
41.0156	8.77258e-005			41.0156	8.77258e-005
				41.0156	8.77258e-005
42.4805	0.00559395			42.4805	0.000166212
42.4805	0.000166212			42.4805	0.000166212
				42.4805	0.000166212
43.9453	0.0054557			43.9453	3.76767e-005
43.9453	3.76767e-005			43.9453	3.76767e-005
				43.9453	3.76767e-005
45.4102	0.00542468			45.4102	4.48259e-005
45.4102	4.48259e-005			45.4102	4.48259e-005
				45.4102	4.48259e-005
46.875	0.00505743			46.875	6.54069e-005
46.875	6.54069e-005			46.875	6.54069e-005
				46.875	6.54069e-005
48.3398	0.00503356			48.3398	0.000133995
48.3398	0.000133995			48.3398	0.000133995
				48.3398	0.000133995
49.8047	0.00475459			49.8047	0.000119389
49.8047	0.000119389			49.8047	0.000119389
				49.8047	0.000119389
51.2695	0.00471875			51.2695	0.00011564
51.2695	0.00011564			51.2695	0.00011564
				51.2695	0.00011564
52.7344	0.00453956			52.7344	0.000104958
52.7344	0.000104958			52.7344	0.000104958
				52.7344	0.000104958
54.1992	0.00444768			54.1992	0.000161536
54.1992	0.000161536			54.1992	0.000161536
				54.1992	0.000161536
55.6641	0.00430328			55.6641	0.000126598
55.6641	0.000126598			55.6641	0.000126598
				55.6641	0.000126598
57.1289	0.00435131			57.1289	6.42413e-005
57.1289	6.42413e-005			57.1289	6.42413e-005
				57.1289	6.42413e-005
58.5938	0.00414574			58.5938	3.62186e-005
58.5938	3.62186e-005			58.5938	3.62186e-005
				58.5938	3.62186e-005
60.0586	0.00400044			60.0586	1.49996e-005
60.0586	1.49996e-005			60.0586	1.49996e-005
				60.0586	1.49996e-005
61.5234	0.00390004			61.5234	5.09924e-005
61.5234	5.09924e-005			61.5234	5.09924e-005
				61.5234	5.09924e-005
		62.9883	6.37416e-005	62.9883	3.20196e-005
		62.9883	3.20196e-005	62.9883	3.20196e-005
				62.9883	3.20196e-005
64.4531	0.00364203			64.4531	5.69287e-005
64.4531	5.69287e-005			64.4531	5.69287e-005
				64.4531	5.69287e-005
65.918	0.00365215			65.918	0.000111918
65.918	0.000111918			65.918	0.000111918
				65.918	0.000111918
67.3828	0.00342434			67.3828	4.37081e-005
67.3828	4.37081e-005			67.3828	4.37081e-005
				67.3828	4.37081e-005
				68.8477	9.59828e-005
				68.8477	9.59828e-005
				68.8477	9.59828e-005
70.3125	0.00343482			70.3125	7.27237e-005
70.3125	7.27237e-005			70.3125	7.27237e-005
				70.3125	7.27237e-005
71.7773	0.00353371			71.7773	0.000204223
71.7773	0.000204223			71.7773	0.000204223
				71.7773	0.000204223
73.2422	0.00314363			73.2422	4.09313e-005
73.2422	4.09313e-005			73.2422	4.09313e-005
				73.2422	4.09313e-005
		74.707	0.000129606	74.707	8.91061e-005
		74.707	8.91061e-005	74.707	8.91061e-005
				74.707	8.91061e-005
76.1719	0.00301522			76.1719	8.42005e-005
76.1719	8.42005e-005			76.1719	8.42005e-005
				76.1719	8.42005e-005
77.6367	0.00297135			77.6367	3.65732e-005
77.6367	3.65732e-005			77.6367	3.65732e-005
				77.6367	3.65732e-005
		79.1016	0.000146792	79.1016	6.46314e-005
		79.1016	6.46314e-005	79.1016	6.46314e-005
				79.1016	6.46314e-005
80.5664	0.00268995			80.5664	0.000175875
80.5664	0.000175875			80.5664	0.000175875
				80.5664	0.000175875
				82.0313	0.000108212
				82.0313	0.000108212
				82.0313	0.000108212
83.4961	0.00253072			83.4961	6.9538e-005
83.4961	6.9538e-005			83.4961	6.9538e-005
				83.4961	6.9538e-005
84.9609	0.00247654			84.9609	5.50866e-005
84.9609	5.50866e-005			84.9609	5.50866e-005
				84.9609	5.50866e-005
				86.4258	7.26069e-005
				86.4258	7.26069e-005
				86.4258	7.26069e-005
87.8906	0.00243357			87.8906	1.61078e-005
87.8906	1.61078e-005			87.8906	1.61078e-005
				87.8906	1.61078e-005
				89.3555	0.000116051
				89.3555	0.000116051
				89.3555	0.000116051
90.8203	0.00225529			90.8203	2.65248e-005
90.8203	2.65248e-005			90.8203	2.65248e-005
				90.8203	2.65248e-005
92.2852	0.00225071			92.2852	5.56035e-005
92.2852	5.56035e-005			92.2852	5.56035e-005
				92.2852	5.56035e-005
		93.75	0.000165375	93.75	4.29363e-005
		93.75	4.29363e-005	93.75	4.29363e-005
				93.75	4.29363e-005
95.2148	0.00205027			95.2148	1.99529e-005
95.2148	1.99529e-005			95.2148	1.99529e-005
				95.2148	1.99529e-005
				96.6797	0.000106484
				96.6797	0.000106484
				96.6797	0.000106484
98.1445	0.00203227			98.1445	0.000115482
98.1445	0.000115482			98.1445	0.000115482
				98.1445	0.000115482
				99.6094	7.86573e-005
				99.6094	7.86573e-005
				99.6094	7.86573e-005
101.074	0.00195043			101.074	8.09952e-005
101.074	8.09952e-005			101.074	8.09952e-005
				101.074	8.09952e-005
		102.539	0.000115623	102.539	6.1546e-005
		102.539	6.1546e-005	102.539	6.1546e-005
				102.539	6.1546e-005
104.004	0.00191618			104.004	6.56501e-005
104.004	6.56501e-005			104.004	6.56501e-005
				104.004	6.56501e-005
		105.469	6.68499e-005	105.469	3.73111e-005
		105.469	3.73111e-005	105.469	3.73111e-005
				105.469	3.73111e-005
106.934	0.00180682			106.934	8.29017e-005
106.934	8.29017e-005			106.934	8.29017e-005
				106.934	8.29017e-005
		108.398	7.59563e-005	108.398	6.61234e-005
		108.398	6.61234e-005	108.398	6.61234e-005
				108.398	6.61234e-005
		109.863	9.03853e-005	109.863	4.54995e-005
		109.863	4.54995e-005	109.863	4.54995e-005
				109.863	4.54995e-005
111.328	0.00171051			111.328	6.91379e-005
111.328	6.91379e-005			111.328	6.91379e-005
				111.328	6.91379e-005
		112.793	7.21614e-005	112.793	5.07385e-005
		112.793	5.07385e-005	112.793	5.07385e-005
				112.793	5.07385e-005
114.258	0.00162238			114.258	2.33486e-005
114.258	2.33486e-005			114.258	2.33486e-005
				114.258	2.33486e-005
				115.723	4.32677e-005
				115.723	4.32677e-005
				115.723	4.32677e-005
117.188	0.00154024			117.188	3.99553e-005
117.188	3.99553e-005			117.188	3.99553e-005
				117.188	3.99553e-005
				118.652	3.93584e-005
				118.652	3.93584e-005
				118.652	3.93584e-005
120.117	0.001512			120.117	0.000101986
120.117	0.000101986			120.117	0.000101986
				120.117	0.000101986
				121.582	4.93908e-005
				121.582	4.93908e-005
				121.582	4.93908e-005
		123.047	4.81554e-005	123.047	3.09736e-005
		123.047	3.09736e-005	123.047	3.09736e-005
				123.047	3.09736e-005
124.512	0.00133592			124.512	7.86628e-005
124.512	7.86628e-005			124.512	7.86628e-005
				124.512	7.86628e-005
				125.977	8.2234e-005
				125.977	8.2234e-005
				125.977	8.2234e-005
127.441	0.00132282			127.441	8.92023e-005
127.441	8.92023e-005			127.441	8.92023e-005
				127.441	8.92023e-005
		128.906	0.000107152	128.906	6.06277e-005
		128.906	6.06277e-005	128.906	6.06277e-005
				128.906	6.06277e-005
				130.371	8.021e-005
				130.371	8.021e-005
				130.371	8.021e-005
131.836	0.00112357			131.836	6.51756e-005
131.836	6.51756e-005			131.836	6.51756e-005
				131.836	6.51756e-005
		133.301	5.11112e-005	133.301	4.15297e-005
		133.301	4.15297e-005	133.301	4.15297e-005
				133.301	4.15297e-005
134.766	0.00112769			134.766	5.06158e-005
134.766	5.06158e-005			134.766	5.06158e-005
				134.766	5.06158e-005
				136.23	0.000117838
				136.23	0.000117838
				136.23	0.000117838
				137.695	5.42519e-005
				137.695	5.42519e-005
				137.695	5.42519e-005
139.16	0.00110265			139.16	3.36924e-005
139.16	3.36924e-005			139.16	3.36924e-005
				139.16	3.36924e-005
				140.625	0.000102058
				140.625	0.000102058
				140.625	0.000102058
		142.09	7.79707e-005	142.09	3.57485e-005
		142.09	3.57485e-005	142.09	3.57485e-005
				142.09	3.57485e-005
143.555	0.00119075			143.555	9.49188e-005
143.555	9.49188e-005			143.555	9.49188e-005
				143.555	9.49188e-005
		145.02	6.07781e-005	145.02	5.03866e-005
		145.02	5.03866e-005	145.02	5.03866e-005
				145.02	5.03866e-005
		146.484	9.15073e-005	146.484	8.50743e-005
		146.484	8.50743e-005	146.484	8.50743e-005
				146.484	8.50743e-005
147.949	0.000987438			147.949	7.70923e-005
147.949	7.70923e-005			147.949	7.70923e-005
				147.949	7.70923e-005
				149.414	0.00011474
				149.414	0.00011474
				149.414	0.00011474
		150.879	0.000134234	150.879	4.90156e-005
		150.879	4.90156e-005	150.879	4.90156e-005
				150.879	4.90156e-005
152.344	0.000921826			152.344	2.60625e-005
152.344	2.60625e-005			152.344	2.60625e-005
				152.344	2.60625e-005
				153.809	8.1789e-005
				153.809	8.1789e-005
				153.809	8.1789e-005
				155.273	9.27672e-005
				155.273	9.27672e-005
				155.273	9.27672e-005
156.738	0.000906542			156.738	1.72133e-005
156.738	1.72133e-005			156.738	1.72133e-005
				156.738	1.72133e-005
		158.203	0.000103651	158.203	2.11545e-005
		158.203	2.11545e-005	158.203	2.11545e-005
				158.203	2.11545e-005
				159.668	8.33355e-005
				159.668	8.33355e-005
				159.668	8.33355e-005
161.133	0.000776408			161.133	5.42937e-005
161.133	5.42937e-005			161.133	5.42937e-005
				161.133	5.42937e-005
				162.598	6.29809e-005
				162.598	6.29809e-005
				162.598	6.29809e-005
		164.063	0.000113485	164.063	4.05771e-005
		164.063	4.05771e-005	164.063	4.05771e-005
				164.063	4.05771e-005
165.527	0.000865559			165.527	8.89752e-005
165.527	8.89752e-005			165.527	8.89752e-005
				165.527	8.89752e-005
				166.992	9.81016e-005
				166.992	9.81016e-005
				166.992	9.81016e-005
		168.457	0.000162196	168.457	3.89988e-005
		168.457	3.89988e-005	168.457	3.89988e-005
				168.457	3.89988e-005
169.922	0.000833449			169.922	5.49278e-005
169.922	5.49278e-005			169.922	5.49278e-005
				169.922	5.49278e-005
				171.387	9.38765e-005
				171.387	9.38765e-005
				171.387	9.38765e-005
				172.852	8.2615e-005
				172.852	8.2615e-005
				172.852	8.2615e-005
				174.316	6.17176e-005
				174.316	6.17176e-005
				174.316	6.17176e-005
175.781	0.000788583			175.781	4.26217e-005
175.781	4.26217e-005			175.781	4.26217e-005
				175.781	4.26217e-005
		177.246	8.48276e-005	177.246	4.48365e-005
		177.246	4.48365e-005	177.246	4.48365e-005
				177.246	4.48365e-005
				178.711	0.000115063
				178.711	0.000115063
				178.711	0.000115063
180.176	0.000714325			180.176	8.31161e-005
180.176	8.31161e-005			180.176	8.31161e-005
				180.176	8.31161e-005
		181.641	0.000113473	181.641	4.6281e-005
		181.641	4.6281e-005	181.641	4.6281e-005
				181.641	4.6281e-005
		183.105	4.36151e-005	183.105	2.99696e-005
		183.105	2.99696e-005	183.105	2.99696e-005
				183.105	2.99696e-005
				184.57	6.72493e-005
				184.57	6.72493e-005
				184.57	6.72493e-005
186.035	0.00063619			186.035	3.19837e-005
186.035	3.19837e-005			186.035	3.19837e-005
				186.035	3.19837e-005
		187.5	3.64916e-005	187.5	2.00662e-005
		187.5	2.00662e-005	187.5	2.00662e-005
				187.5	2.00662e-005
		188.965	7.96732e-005	188.965	7.35417e-005
		188.965	7.35417e-005	188.965	7.35417e-005
				188.965	7.35417e-005
		190.43	6.71793e-005	190.43	5.12696e-005
		190.43	5.12696e-005	190.43	5.12696e-005
				190.43	5.12696e-005
191.895	0.000592199			191.895	0.00014987
191.895	0.00014987			191.895	0.00014987
				191.895	0.00014987
				193.359	5.24803e-005
				193.359	5.24803e-005
				193.359	5.24803e-005
		194.824	4.45456e-005	194.824	2.19496e-005
		194.824	2.19496e-005	194.824	2.19496e-005
				194.824	2.19496e-005
		196.289	6.30822e-005	196.289	2.73214e-005
		196.289	2.73214e-005	196.289	2.73214e-005
				196.289	2.73214e-005
197.754	0.000539607			197.754	0.000112272
197.754	0.000112272			197.754	0.000112272
				197.754	0.000112272
				199.219	4.97235e-005
				199.219	4.97235e-005
				199.219	4.97235e-005
		200.684	9.95543e-005	200.684	3.89484e-005
		200.684	3.89484e-005	200.684	3.89484e-005
				200.684	3.89484e-005
202.148	0.000500651			202.148	4.24343e-005
202.148	4.24343e-005			202.148	4.24343e-005
				202.148	4.24343e-005
		203.613	7.79706e-005	203.613	3.0672e-005
		203.613	3.0672e-005	203.613	3.0672e-005
				203.613	3.0672e-005
				205.078	4.87158e-005
				205.078	4.87158e-005
				205.078	4.87158e-005
		206.543	9.95953e-005	206.543	5.76492e-005
		206.543	5.76492e-005	206.543	5.76492e-005
				206.543	5.76492e-005
		208.008	8.16248e-005	208.008	3.35577e-005
		208.008	3.35577e-005	208.008	3.35577e-005
				208.008	3.35577e-005
209.473	0.000455948			209.473	8.91389e-005
209.473	8.91389e-005			209.473	8.91389e-005
				209.473	8.91389e-005
				210.938	6.19611e-005
				210.938	6.19611e-005
				210.938	6.19611e-005
				212.402	0.000100109
				212.402	0.000100109
				212.402	0.000100109
		213.867	0.000109211	213.867	6.44049e-005
		213.867	6.44049e-005	213.867	6.44049e-005
				213.867	6.44049e-005
215.332	0.000457682			215.332	5.89199e-005
215.332	5.89199e-005			215.332	5.89199e-005
				215.332	5.89199e-005
				216.797	1.43203e-005
				216.797	1.43203e-005
				216.797	1.43203e-005
				218.262	6.44796e-005
				218.262	6.44796e-005
				218.262	6.44796e-005
		219.727	5.78097e-005	219.727	2.45344e-005
		219.727	2.45344e-005	219.727	2.45344e-005
				219.727	2.45344e-005
221.191	0.000426305			221.191	8.4177e-005
221.191	8.4177e-005			221.191	8.4177e-005
				221.191	8.4177e-005
				222.656	2.33263e-005
				222.656	2.33263e-005
				222.656	2.33263e-005
				224.121	5.70581e-005
				224.121	5.70581e-005
				224.121	5.70581e-005
		225.586	1.4765e-005	225.586	8.51908e-006
		225.586	8.51908e-006	225.586	8.51908e-006
				225.586	8.51908e-006
227.051	0.000389054			227.051	7.1991e-005
227.051	7.1991e-005			227.051	7.1991e-005
				227.051	7.1991e-005
		228.516	0.000101564	228.516	1.81385e-005
		228.516	1.81385e-005	228.516	1.81385e-005
				228.516	1.81385e-005
		229.98	8.27658e-005	229.98	2.14438e-005
		229.98	2.14438e-005	229.98	2.14438e-005
				229.98	2.14438e-005
				231.445	7.64809e-005
				231.445	7.64809e-005
				231.445	7.64809e-005
				232.91	4.84294e-005
				232.91	4.84294e-005
				232.91	4.84294e-005
234.375	0.000386211			234.375	5.23486e-005
234.375	5.23486e-005			234.375	5.23486e-005
				234.375	5.23486e-005
		235.84	6.26029e-005	235.84	5.02212e-005
		235.84	5.02212e-005	235.84	5.02212e-005
				235.84	5.02212e-005
		237.305	5.79475e-005	237.305	2.46635e-005
		237.305	2.46635e-005	237.305	2.46635e-005
				237.305	2.46635e-005
		238.77	6.16825e-005	238.77	3.98412e-005
		238.77	3.98412e-005	238.77	3.98412e-005
				238.77	3.98412e-005
				240.234	1.91352e-005
				240.234	1.91352e-005
				240.234	1.91352e-005
241.699	0.000352389			241.699	1.4443e-005
241.699	1.4443e-005			241.699	1.4443e-005
				241.699	1.4443e-005
				243.164	0.000113983
				243.164	0.000113983
				243.164	0.000113983
				244.629	7.79359e-005
				244.629	7.79359e-005
				244.629	7.79359e-005
				246.094	3.21595e-005
				246.094	3.21595e-005
				246.094	3.21595e-005
		247.559	4.23357e-005	247.559	3.80604e-005
		247.559	3.80604e-005	247.559	3.80604e-005
				247.559	3.80604e-005
249.023	0.00029564			249.023	4.75271e-005
249.023	4.75271e-005			249.023	4.75271e-005
				249.023	4.75271e-005
				250.488	9.64628e-005
				250.488	9.64628e-005
				250.488	9.64628e-005
				251.953	1.77379e-005
				251.953	1.77379e-005
				251.953	1.77379e-005
				253.418	3.56485e-005
				253.418	3.56485e-005
				253.418	3.56485e-005
254.883	0.000286874			254.883	1.24998e-005
254.883	1.24998e-005			254.883	1.24998e-005
				254.883	1.24998e-005
				256.348	8.80647e-005
				256.348	8.80647e-005
				256.348	8.80647e-005
		257.813	7.50778e-005	257.813	2.70196e-005
		257.813	2.70196e-005	257.813	2.70196e-005
				257.813	2.70196e-005
		259.277	3.67574e-005	259.277	2.2182e-005
		259.277	2.2182e-005	259.277	2.2182e-005
				259.277	2.2182e-005
				260.742	4.3635e-005
				260.742	4.3635e-005
				260.742	4.3635e-005
				262.207	8.59166e-005
				262.207	8.59166e-005
				262.207	8.59166e-005
263.672	0.000279682			263.672	1.63861e-005
263.672	1.63861e-005			263.672	1.63861e-005
				263.672	1.63861e-005
		265.137	5.92145e-005	265.137	4.17031e-005
		265.137	4.17031e-005	265.137	4.17031e-005
				265.137	4.17031e-005
				266.602	4.80252e-005
				266.602	4.80252e-005
				266.602	4.80252e-005
		268.066	9.02106e-005	268.066	1.06062e-005
		268.066	1.06062e-005	268.066	1.06062e-005
				268.066	1.06062e-005
				269.531	5.45436e-005
				269.531	5.45436e-005
				269.531	5.45436e-005
270.996	0.000377763			270.996	3.27979e-005
270.996	3.27979e-005			270.996	3.27979e-005
				270.996	3.27979e-005
		272.461	4.05469e-005	272.461	3.76353e-005
		272.461	3.76353e-005	272.461	3.76353e-005
				272.461	3.76353e-005
		273.926	6.97064e-005	273.926	5.25156e-005
		273.926	5.25156e-005	273.926	5.25156e-005
				273.926	5.25156e-005
		275.391	7.13432e-005	275.391	3.32861e-006
		275.391	3.32861e-006	275.391	3.32861e-006
				275.391	3.32861e-006
		276.855	8.14708e-005	276.855	4.23743e-005
		276.855	4.23743e-005	276.855	4.23743e-005
				276.855	4.23743e-005
278.32	0.000369423			278.32	4.42106e-005
278.32	4.42106e-005			278.32	4.42106e-005
				278.32	4.42106e-005
		279.785	6.13172e-005	279.785	2.74031e-005
		279.785	2.74031e-005	279.785	2.74031e-005
				279.785	2.74031e-005
		281.25	7.17221e-005	281.25	6.81018e-005
		281.25	6.81018e-005	281.25	6.81018e-005
				281.25	6.81018e-005
		282.715	8.11688e-005	282.715	7.52697e-005
		282.715	7.52697e-005	282.715	7.52697e-005
				282.715	7.52697e-005
		284.18	4.70833e-005	284.18	2.35202e-005
		284.18	2.35202e-005	284.18	2.35202e-005
				284.18	2.35202e-005
				285.645	6.54185e-005
				285.645	6.54185e-005
				285.645	6.54185e-005
287.109	0.000337389			287.109	3.15637e-005
287.109	3.15637e-005			287.109	3.15637e-005
				287.109	3.15637e-005
		288.574	6.10809e-005	288.574	1.79969e-005
		288.574	1.79969e-005	288.574	1.79969e-005
				288.574	1.79969e-005
		290.039	4.48883e-005	290.039	2.70162e-005
		290.039	2.70162e-005	290.039	2.70162e-005
				290.039	2.70162e-005
		291.504	5.56353e-005	291.504	2.49148e-005
		291.504	2.49148e-005	291.504	2.49148e-005
				291.504	2.49148e-005
		292.969	7.57883e-005	292.969	2.88307e-005
		292.969	2.88307e-005	292.969	2.88307e-005
				292.969	2.88307e-005
				294.434	0.000106821
				294.434	0.000106821
				294.434	0.000106821
295.898	0.000275844			295.898	0.00010029
295.898	0.00010029			295.898	0.00010029
				295.898	0.00010029
		297.363	3.11607e-005	297.363	3.0542e-005
		297.363	3.0542e-005	297.363	3.0542e-005
				297.363	3.0542e-005
		298.828	3.7235e-005	298.828	3.24904e-005
		298.828	3.24904e-005	298.828	3.24904e-005
				298.828	3.24904e-005
				300.293	7.2876e-005
				300.293	7.2876e-005
				300.293	7.2876e-005
				301.758	4.50023e-005
				301.758	4.50023e-005
				301.758	4.50023e-005
303.223	0.000241278			303.223	3.58345e-005
303.223	3.58345e-005			303.223	3.58345e-005
				303.223	3.58345e-005
				304.688	3.19834e-005
				304.688	3.19834e-005
				304.688	3.19834e-005
		306.152	4.93978e-005	306.152	3.87151e-005
		306.152	3.87151e-005	306.152	3.87151e-005
				306.152	3.87151e-005
				307.617	5.48181e-005
				307.617	5.48181e-005
				307.617	5.48181e-005
		309.082	7.67216e-005	309.082	2.2301e-005
		309.082	2.2301e-005	309.082	2.2301e-005
				309.082	2.2301e-005
				310.547	5.40107e-005
				310.547	5.40107e-005
				310.547	5.40107e-005
		312.012	8.23403e-005	312.012	7.48573e-005
		312.012	7.48573e-005	312.012	7.48573e-005
				312.012	7.48573e-005
313.477	0.000172252			313.477	8.62789e-005
313.477	8.62789e-005			313.477	8.62789e-005
				313.477	8.62789e-005
		314.941	4.00923e-005	314.941	1.84138e-005
		314.941	1.84138e-005	314.941	1.84138e-005
				314.941	1.84138e-005
				316.406	6.88799e-005
				316.406	6.88799e-005
				316.406	6.88799e-005
				317.871	2.27593e-005
				317.871	2.27593e-005
				317.871	2.27593e-005
				319.336	6.39522e-005
				319.336	6.39522e-005
				319.336	6.39522e-005
		320.801	7.96517e-005	320.801	1.31965e-005
		320.801	1.31965e-005	320.801	1.31965e-005
				320.801	1.31965e-005
322.266	0.000257211			322.266	2.44374e-005
322.266	2.44374e-005			322.266	2.44374e-005
				322.266	2.44374e-005
		323.73	3.29654e-005	323.73	3.21581e-005
		323.73	3.21581e-005	323.73	3.21581e-005
				323.73	3.21581e-005
		325.195	1.68115e-005	325.195	1.24825e-005
		325.195	1.24825e-005	325.195	1.24825e-005
				325.195	1.24825e-005
				326.66	2.52223e-005
				326.66	2.52223e-005
				326.66	2.52223e-005
				328.125	0.000102828
				328.125	0.000102828
				328.125	0.000102828
				329.59	5.21294e-005
				329.59	5.21294e-005
				329.59	5.21294e-005
331.055	0.000157018			331.055	8.87213e-005
331.055	8.87213e-005			331.055	8.87213e-005
				331.055	8.87213e-005
				332.52	6.8852e-005
				332.52	6.8852e-005
				332.52	6.8852e-005
				333.984	8.44518e-005
				333.984	8.44518e-005
				333.984	8.44518e-005
		335.449	8.25541e-005	335.449	4.26306e-005
		335.449	4.26306e-005	335.449	4.26306e-005
				335.449	4.26306e-005
		336.914	2.29961e-005	336.914	2.08476e-005
		336.914	2.08476e-005	336.914	2.08476e-005
				336.914	2.08476e-005
		338.379	5.16588e-005	338.379	4.72769e-005
		338.379	4.72769e-005	338.379	4.72769e-005
				338.379	4.72769e-005
		339.844	0.000118781	339.844	5.75112e-005
		339.844	5.75112e-005	339.844	5.75112e-005
				339.844	5.75112e-005
341.309	0.000200101			341.309	3.64412e-005
341.309	3.64412e-005			341.309	3.64412e-005
				341.309	3.64412e-005
		342.773	5.01275e-005	342.773	3.91477e-005
		342.773	3.91477e-005	342.773	3.91477e-005
				342.773	3.91477e-005
				344.238	1.53244e-005
				344.238	1.53244e-005
				344.238	1.53244e-005
				345.703	6.26055e-005
				345.703	6.26055e-005
				345.703	6.26055e-005
		347.168	7.7227e-005	347.168	3.44338e-005
		347.168	3.44338e-005	347.168	3.44338e-005
				347.168	3.44338e-005
		348.633	3.40422e-005	348.633	3.14343e-005
		348.633	3.14343e-005	348.633	3.14343e-005
				348.633	3.14343e-005
		350.098	5.82251e-005	350.098	4.22914e-005
		350.098	4.22914e-005	350.098	4.22914e-005
				350.098	4.22914e-005
351.563	0.000196816			351.563	1.74902e-005
351.563	1.74902e-005			351.563	1.74902e-005
				351.563	1.74902e-005
				353.027	2.65968e-005
				353.027	2.65968e-005
				353.027	2.65968e-005
				354.492	5.04738e-005
				354.492	5.04738e-005
				354.492	5.04738e-005
				355.957	1.25048e-005
				355.957	1.25048e-005
				355.957	1.25048e-005
				357.422	5.59044e-005
				357.422	5.59044e-005
				357.422	5.59044e-005
				358.887	8.51739e-005
				358.887	8.51739e-005
				358.887	8.51739e-005
				360.352	8.26426e-005
				360.352	8.26426e-005
				360.352	8.26426e-005
361.816	0.000134213			361.816	4.22521e-005
361.816	4.22521e-005			361.816	4.22521e-005
				361.816	4.22521e-005
				363.281	8.14198e-005
				363.281	8.14198e-005
				363.281	8.14198e-005
		364.746	4.88612e-005	364.746	3.57946e-005
		364.746	3.57946e-005	364.746	3.57946e-005
				364.746	3.57946e-005
				366.211	7.54627e-005
				366.211	7.54627e-005
				366.211	7.54627e-005
		367.676	8.82056e-005	367.676	1.5901e-005
		367.676	1.5901e-005	367.676	1.5901e-005
				367.676	1.5901e-005
		369.141	6.78935e-005	369.141	5.21942e-005
		369.141	5.21942e-005	369.141	5.21942e-005
				369.141	5.21942e-005
		370.605	8.36173e-005	370.605	4.96941e-005
		370.605	4.96941e-005	370.605	4.96941e-005
				370.605	4.96941e-005
372.07	0.000175007			372.07	4.71652e-005
372.07	4.71652e-005			372.07	4.71652e-005
				372.07	4.71652e-005
				373.535	6.43529e-005
				373.535	6.43529e-005
				373.535	6.43529e-005
				375	0.000108615
				375	0.000108615
				375	0.000108615
				376.465	6.88773e-005
				376.465	6.88773e-005
				376.465	6.88773e-005
		377.93	5.26365e-005	377.93	2.41274e-005
		377.93	2.41274e-005	377.93	2.41274e-005
				377.93	2.41274e-005
		379.395	0.000102992	379.395	6.79585e-005
		379.395	6.79585e-005	379.395	6.79585e-005
				379.395	6.79585e-005
				380.859	3.46092e-005
				380.859	3.46092e-005
				380.859	3.46092e-005
382.324	0.000195027			382.324	1.31097e-005
382.324	1.31097e-005			382.324	1.31097e-005
				382.324	1.31097e-005
				383.789	7.47582e-005
				383.789	7.47582e-005
				383.789	7.47582e-005
		385.254	4.08953e-005	385.254	2.70232e-005
		385.254	2.70232e-005	385.254	2.70232e-005
				385.254	2.70232e-005
				386.719	6.3766e-005
				386.719	6.3766e-005
				386.719	6.3766e-005
				388.184	4.99937e-005
				388.184	4.99937e-005
				388.184	4.99937e-005
				389.648	7.22237e-005
				389.648	7.22237e-005
				389.648	7.22237e-005
				391.113	2.73619e-005
				391.113	2.73619e-005
				391.113	2.73619e-005
		392.578	6.49697e-005	392.578	3.21168e-005
		392.578	3.21168e-005	392.578	3.21168e-005
				392.578	3.21168e-005
				394.043	0.000104047
				394.043	0.000104047
				394.043	0.000104047
				395.508	3.07511e-005
				395.508	3.07511e-005
				395.508	3.07511e-005
				396.973	4.30754e-005
				396.973	4.30754e-005
				396.973	4.30754e-005
				398.438	4.62932e-005
				398.438	4.62932e-005
				398.438	4.62932e-005
		399.902	3.49192e-005	399.902	3.11962e-005
		399.902	3.11962e-005	399.902	3.11962e-005
				399.902	3.11962e-005
				401.367	5.38026e-005
				401.367	5.38026e-005
				401.367	5.38026e-005
				402.832	9.13343e-005
				402.832	9.13343e-005
				402.832	9.13343e-005
				404.297	0.000110893
				404.297	0.000110893
				404.297	0.000110893
405.762	0.000110935			405.762	5.05724e-005
405.762	5.05724e-005			405.762	5.05724e-005
				405.762	5.05724e-005
				407.227	2.39253e-005
				407.227	2.39253e-005
				407.227	2.39253e-005
				408.691	4.45081e-005
				408.691	4.45081e-005
				408.691	4.45081e-005
				410.156	7.54824e-005
				410.156	7.54824e-005
				410.156	7.54824e-005
		411.621	8.07663e-005	411.621	2.75161e-005
		411.621	2.75161e-005	411.621	2.75161e-005
				411.621	2.75161e-005
				413.086	5.90188e-005
				413.086	5.90188e-005
				413.086	5.90188e-005
				414.551	4.962e-005
				414.551	4.962e-005
				414.551	4.962e-005
		416.016	8.96811e-005	416.016	4.65106e-005
		416.016	4.65106e-005	416.016	4.65106e-005
				416.016	4.65106e-005
417.48	0.000201813			417.48	6.24422e-005
417.48	6.24422e-005			417.48	6.24422e-005
				417.48	6.24422e-005
				418.945	8.78175e-005
				418.945	8.78175e-005
				418.945	8.78175e-005
		420.41	7.62579e-005	420.41	3.86801e-005
		420.41	3.86801e-005	420.41	3.86801e-005
				420.41	3.86801e-005
				421.875	4.61543e-005
				421.875	4.61543e-005
				421.875	4.61543e-005
				423.34	5.68706e-005
				423.34	5.68706e-005
				423.34	5.68706e-005
		424.805	4.69123e-005	424.805	1.87879e-005
		424.805	1.87879e-005	424.805	1.87879e-005
				424.805	1.87879e-005
				426.27	8.25398e-005
				426.27	8.25398e-005
				426.27	8.25398e-005
				427.734	7.47617e-005
				427.734	7.47617e-005
				427.734	7.47617e-005
429.199	0.000121584			429.199	8.06117e-005
429.199	8.06117e-005			429.199	8.06117e-005
				429.199	8.06117e-005
		430.664	9.63894e-005	430.664	8.91729e-005
		430.664	8.91729e-005	430.664	8.91729e-005
				430.664	8.91729e-005
				432.129	4.112e-005
				432.129	4.112e-005
				432.129	4.112e-005
				433.594	6.08847e-005
				433.594	6.08847e-005
				433.594	6.08847e-005
		435.059	3.08342e-005	435.059	2.85479e-005
		435.059	2.85479e-005	435.059	2.85479e-005
				435.059	2.85479e-005
		436.523	7.16509e-005	436.523	4.63198e-005
		436.523	4.63198e-005	436.523	4.63198e-005
				436.523	4.63198e-005
				437.988	4.15435e-005
				437.988	4.15435e-005
				437.988	4.15435e-005
				439.453	9.15303e-005
				439.453	9.15303e-005
				439.453	9.15303e-005
		440.918	6.81349e-005	440.918	5.21559e-005
		440.918	5.21559e-005	440.918	5.21559e-005
				440.918	5.21559e-005
442.383	8.03667e-005			442.383	6.52104e-005
442.383	6.52104e-005			442.383	6.52104e-005
				442.383	6.52104e-005
		443.848	6.21437e-005	443.848	4.69751e-005
		443.848	4.69751e-005	443.848	4.69751e-005
				443.848	4.69751e-005
		445.313	3.12268e-005	445.313	2.66245e-005
		445.313	2.66245e-005	445.313	2.66245e-005
				445.313	2.66245e-005
				446.777	5.56708e-005
				446.777	5.56708e-005
				446.777	5.56708e-005
		448.242	3.71647e-005	448.242	2.59413e-005
		448.242	2.59413e-005	448.242	2.59413e-005
				448.242	2.59413e-005
				449.707	3.65695e-005
				449.707	3.65695e-005
				449.707	3.65695e-005
		451.172	2.2238e-005	451.172	1.94406e-005
		451.172	1.94406e-005	451.172	1.94406e-005
				451.172	1.94406e-005
				452.637	2.82028e-005
				452.637	2.82028e-005
				452.637	2.82028e-005
		454.102	6.23709e-005	454.102	4.97144e-005
		454.102	4.97144e-005	454.102	4.97144e-005
				454.102	4.97144e-005
455.566	0.00011207			455.566	2.38222e-005
455.566	2.38222e-005			455.566	2.38222e-005
				455.566	2.38222e-005
		457.031	7.46165e-005	457.031	6.62684e-005
		457.031	6.62684e-005	457.031	6.62684e-005
				457.031	6.62684e-005
				458.496	2.98899e-005
				458.496	2.98899e-005
				458.496	2.98899e-005
		459.961	4.2453e-005	459.961	3.11391e-005
		459.961	3.11391e-005	459.961	3.11391e-005
				459.961	3.11391e-005
				461.426	5.03298e-005
				461.426	5.03298e-005
				461.426	5.03298e-005
				462.891	5.10212e-005
				462.891	5.10212e-005
				462.891	5.10212e-005
				464.355	6.42628e-005
				464.355	6.42628e-005
				464.355	6.42628e-005
		465.82	4.31596e-005	465.82	3.68069e-005
		465.82	3.68069e-005	465.82	3.68069e-005
				465.82	3.68069e-005
				467.285	7.75808e-005
				467.285	7.75808e-005
				467.285	7.75808e-005
468.75	9.07393e-005			468.75	2.86447e-005
468.75	2.86447e-005			468.75	2.86447e-005
				468.75	2.86447e-005
		470.215	7.95217e-005	470.215	6.33635e-005
		470.215	6.33635e-005	470.215	6.33635e-005
				470.215	6.33635e-005
		471.68	7.70728e-005	471.68	5.55629e-005
		471.68	5.55629e-005	471.68	5.55629e-005
				471.68	5.55629e-005
		473.145	4.18966e-005	473.145	2.6947e-005
		473.145	2.6947e-005	473.145	2.6947e-005
				473.145	2.6947e-005
		474.609	6.36359e-005	474.609	2.97057e-005
		474.609	2.97057e-005	474.609	2.97057e-005
				474.609	2.97057e-005
		476.074	9.99426e-005	476.074	3.4539e-005
		476.074	3.4539e-005	476.074	3.4539e-005
				476.074	3.4539e-005
		477.539	0.000108424	477.539	3.32821e-005
		477.539	3.32821e-005	477.539	3.32821e-005
				477.539	3.32821e-005
		479.004	3.77508e-005	479.004	3.37963e-005
		479.004	3.37963e-005	479.004	3.37963e-005
				479.004	3.37963e-005
		480.469	6.86002e-005	480.469	2.72548e-005
		480.469	2.72548e-005	480.469	2.72548e-005
				480.469	2.72548e-005
481.934	0.000121127			481.934	3.00182e-005
481.934	3.00182e-005			481.934	3.00182e-005
				481.934	3.00182e-005
		483.398	0.000104996	483.398	7.62968e-005
		483.398	7.62968e-005	483.398	7.62968e-005
				483.398	7.62968e-005
		484.863	3.80825e-005	484.863	3.08385e-005
		484.863	3.08385e-005	484.863	3.08385e-005
				484.863	3.08385e-005
		486.328	3.73076e-005	486.328	1.05828e-005
		486.328	1.05828e-005	486.328	1.05828e-005
				486.328	1.05828e-005
				487.793	9.21387e-005
				487.793	9.21387e-005
				487.793	9.21387e-005
				489.258	9.84052e-005
				489.258	9.84052e-005
				489.258	9.84052e-005
				490.723	9.95698e-005
				490.723	9.95698e-005
				490.723	9.95698e-005
		492.188	3.90645e-005	492.188	3.39709e-005
		492.188	3.39709e-005	492.188	3.39709e-005
				492.188	3.39709e-005
		493.652	5.2052e-005	493.652	1.62088e-005
		493.652	1.62088e-005	493.652	1.62088e-005
				493.652	1.62088e-005
				495.117	6.47781e-005
				495.117	6.47781e-005
				495.117	6.47781e-005
496.582	0.000126226			496.582	6.12235e-005
496.582	6.12235e-005			496.582	6.12235e-005
				496.582	6.12235e-005
		498.047	0.000111773	498.047	7.96274e-005
		498.047	7.96274e-005	498.047	7.96274e-005
				498.047	7.96274e-005
				499.512	8.12102e-005
				499.512	8.12102e-005
				499.512	8.12102e-005
				500.977	5.58958e-005
				500.977	5.58958e-005
				500.977	5.58958e-005
		502.441	7.67599e-005	502.441	2.67285e-005
		502.441	2.67285e-005	502.441	2.67285e-005
				502.441	2.67285e-005
		503.906	8.30987e-005	503.906	4.86553e-005
		503.906	4.86553e-005	503.906	4.86553e-005
				503.906	4.86553e-005
		505.371	6.35028e-005	505.371	5.41814e-005
		505.371	5.41814e-005	505.371	5.41814e-005
				505.371	5.41814e-005
		506.836	5.64231e-005	506.836	5.63375e-005
		506.836	5.63375e-005	506.836	5.63375e-005
				506.836	5.63375e-005
		508.301	4.51091e-005	508.301	4.25555e-005
		508.301	4.25555e-005	508.301	4.25555e-005
				508.301	4.25555e-005
				509.766	5.04578e-005
				509.766	5.04578e-005
				509.766	5.04578e-005
511.23	0.000169679			511.23	2.82726e-005
511.23	2.82726e-005			511.23	2.82726e-005
				511.23	2.82726e-005
				512.695	3.84458e-005
				512.695	3.84458e-005
				512.695	3.84458e-005
				514.16	9.75997e-005
				514.16	9.75997e-005
				514.16	9.75997e-005
				515.625	4.87574e-005
				515.625	4.87574e-005
				515.625	4.87574e-005
		517.09	7.43852e-005	517.09	1.899e-005
		517.09	1.899e-005	517.09	1.899e-005
				517.09	1.899e-005
		518.555	5.7307e-005	518.555	2.09719e-005
		518.555	2.09719e-005	518.555	2.09719e-005
				518.555	2.09719e-005
		520.02	9.86716e-005	520.02	3.93066e-005
		520.02	3.93066e-005	520.02	3.93066e-005
				520.02	3.93066e-005
				521.484	7.81888e-005
				521.484	7.81888e-005
				521.484	7.81888e-005
				522.949	7.11001e-005
				522.949	7.11001e-005
				522.949	7.11001e-005
				524.414	7.08618e-005
				524.414	7.08618e-005
				524.414	7.08618e-005
525.879	5.99196e-005			525.879	2.76055e-005
525.879	2.76055e-005			525.879	2.76055e-005
				525.879	2.76055e-005
		527.344	5.47702e-005	527.344	2.95762e-005
		527.344	2.95762e-005	527.344	2.95762e-005
				527.344	2.95762e-005
				528.809	5.85969e-005
				528.809	5.85969e-005
				528.809	5.85969e-005
				530.273	6.37639e-005
				530.273	6.37639e-005
				530.273	6.37639e-005
				531.738	7.36245e-005
				531.738	7.36245e-005
				531.738	7.36245e-005
		533.203	6.50136e-005	533.203	3.44321e-005
		533.203	3.44321e-005	533.203	3.44321e-005
				533.203	3.44321e-005
		534.668	3.2698e-005	534.668	3.17969e-005
		534.668	3.17969e-005	534.668	3.17969e-005
				534.668	3.17969e-005
		536.133	6.46067e-005	536.133	3.13179e-005
		536.133	3.13179e-005	536.133	3.13179e-005
				536.133	3.13179e-005
				537.598	2.23468e-005
				537.598	2.23468e-005
				537.598	2.23468e-005
		539.063	4.41128e-005	539.063	3.65013e-005
		539.063	3.65013e-005	539.063	3.65013e-005
				539.063	3.65013e-005
				540.527	6.11027e-005
				540.527	6.11027e-005
				540.527	6.11027e-005
541.992	9.27596e-005			541.992	9.06561e-005
541.992	9.06561e-005			541.992	9.06561e-005
				541.992	9.06561e-005
		543.457	0.000101964	543.457	4.95234e-005
		543.457	4.95234e-005	543.457	4.95234e-005
				543.457	4.95234e-005
				544.922	3.26959e-005
				544.922	3.26959e-005
				544.922	3.26959e-005
				546.387	9.67823e-005
				546.387	9.67823e-005
				546.387	9.67823e-005
				547.852	8.67319e-005
				547.852	8.67319e-005
				547.852	8.67319e-005
				549.316	5.17468e-005
				549.316	5.17468e-005
				549.316	5.17468e-005
				550.781	8.90241e-005
				550.781	8.90241e-005
				550.781	8.90241e-005
				552.246	6.16864e-005
				552.246	6.16864e-005
				552.246	6.16864e-005
		553.711	0.000105302	553.711	2.86727e-005
		553.711	2.86727e-005	553.711	2.86727e-005
				553.711	2.86727e-005
		555.176	6.55479e-005	555.176	5.48937e-005
		555.176	5.48937e-005	555.176	5.48937e-005
				555.176	5.48937e-005
				556.641	2.41022e-005
				556.641	2.41022e-005
				556.641	2.41022e-005
				558.105	5.4676e-005
				558.105	5.4676e-005
				558.105	5.4676e-005
				559.57	4.17163e-005
				559.57	4.17163e-005
				559.57	4.17163e-005
				561.035	4.87183e-005
				561.035	4.87183e-005
				561.035	4.87183e-005
		562.5	8.34316e-005	562.5	5.72442e-005
		562.5	5.72442e-005	562.5	5.72442e-005
				562.5	5.72442e-005
				563.965	3.14504e-005
				563.965	3.14504e-005
				563.965	3.14504e-005
				565.43	5.10059e-005
				565.43	5.10059e-005
				565.43	5.10059e-005
				566.895	4.47329e-005
				566.895	4.47329e-005
				566.895	4.47329e-005
		568.359	0.000104239	568.359	6.12038e-005
		568.359	6.12038e-005	568.359	6.12038e-005
				568.359	6.12038e-005
		569.824	3.46278e-005	569.824	1.02287e-005
		569.824	1.02287e-005	569.824	1.02287e-005
				569.824	1.02287e-005
				571.289	4.12484e-005
				571.289	4.12484e-005
				571.289	4.12484e-005
		572.754	4.8138e-005	572.754	3.22737e-005
		572.754	3.22737e-005	572.754	3.22737e-005
				572.754	3.22737e-005
574.219	6.44971e-005			574.219	4.41229e-005
574.219	4.41229e-005			574.219	4.41229e-005
				574.219	4.41229e-005
				575.684	5.75626e-005
				575.684	5.75626e-005
				575.684	5.75626e-005
				577.148	4.66561e-005
				577.148	4.66561e-005
				577.148	4.66561e-005
				578.613	4.07948e-005
				578.613	4.07948e-005
				578.613	4.07948e-005
				580.078	4.95753e-005
				580.078	4.95753e-005
				580.078	4.95753e-005
				581.543	4.29106e-005
				581.543	4.29106e-005
				581.543	4.29106e-005
		583.008	4.70985e-005	583.008	1.91261e-005
		583.008	1.91261e-005	583.008	1.91261e-005
				583.008	1.91261e-005
		584.473	2.82689e-005	584.473	1.62591e-005
		584.473	1.62591e-005	584.473	1.62591e-005
				584.473	1.62591e-005
		585.938	5.7755e-005	585.938	2.13095e-005
		585.938	2.13095e-005	585.938	2.13095e-005
				585.938	2.13095e-005
				587.402	6.3726e-005
				587.402	6.3726e-005
				587.402	6.3726e-005
				588.867	6.76947e-005
				588.867	6.76947e-005
				588.867	6.76947e-005
				590.332	8.4936e-005
				590.332	8.4936e-005
				590.332	8.4936e-005
				591.797	8.53904e-006
				591.797	8.53904e-006
				591.797	8.53904e-006
				593.262	4.85616e-005
				593.262	4.85616e-005
				593.262	4.85616e-005
				594.727	7.44428e-005
				594.727	7.44428e-005
				594.727	7.44428e-005
		596.191	6.63128e-005	596.191	2.36828e-005
		596.191	2.36828e-005	596.191	2.36828e-005
				596.191	2.36828e-005
				597.656	7.08998e-005
				597.656	7.08998e-005
				597.656	7.08998e-005
				599.121	5.33414e-005
				599.121	5.33414e-005
				599.121	5.33414e-005
		600.586	4.37432e-005	600.586	2.5695e-005
		600.586	2.5695e-005	600.586	2.5695e-005
				600.586	2.5695e-005
		602.051	0.000100151	602.051	5.32572e-005
		602.051	5.32572e-005	602.051	5.32572e-005
				602.051	5.32572e-005
		603.516	4.71399e-005	603.516	2.78439e-005
		603.516	2.78439e-005	603.516	2.78439e-005
				603.516	2.78439e-005
				604.98	8.54008e-005
				604.98	8.54008e-005
				604.98	8.54008e-005
		606.445	4.65323e-005	606.445	4.35495e-005
		606.445	4.35495e-005	606.445	4.35495e-005
				606.445	4.35495e-005
607.91	4.97457e-005			607.91	3.06578e-005
607.91	3.06578e-005			607.91	3.06578e-005
				607.91	3.06578e-005
		609.375	6.44617e-005	609.375	1.59614e-005
		609.375	1.59614e-005	609.375	1.59614e-005
				609.375	1.59614e-005
		610.84	7.63515e-005	610.84	6.97775e-005
		610.84	6.97775e-005	610.84	6.97775e-005
				610.84	6.97775e-005
				612.305	4.69901e-005
				612.305	4.69901e-005
				612.305	4.69901e-005
				613.77	6.55051e-005
				613.77	6.55051e-005
				613.77	6.55051e-005
		615.234	8.40469e-005	615.234	2.93875e-005
		615.234	2.93875e-005	615.234	2.93875e-005
				615.234	2.93875e-005
		616.699	6.86899e-005	616.699	3.54705e-005
		616.699	3.54705e-005	616.699	3.54705e-005
				616.699	3.54705e-005
		618.164	6.66616e-005	618.164	5.48079e-005
		618.164	5.48079e-005	618.164	5.48079e-005
				618.164	5.48079e-005
		619.629	5.60328e-005	619.629	2.47674e-005
		619.629	2.47674e-005	619.629	2.47674e-005
				619.629	2.47674e-005
				621.094	4.172e-005
				621.094	4.172e-005
				621.094	4.172e-005
		622.559	6.94425e-005	622.559	3.56952e-005
		622.559	3.56952e-005	622.559	3.56952e-005
				622.559	3.56952e-005
		624.023	4.51281e-005	624.023	3.10615e-005
		624.023	3.10615e-005	624.023	3.10615e-005
				624.023	3.10615e-005
				625.488	4.7771e-005
				625.488	4.7771e-005
				625.488	4.7771e-005
		626.953	1.53431e-005	626.953	3.84543e-006
		626.953	3.84543e-006	626.953	3.84543e-006
				626.953	3.84543e-006
				628.418	6.89935e-005
				628.418	6.89935e-005
				628.418	6.89935e-005
				629.883	5.19863e-005
				629.883	5.19863e-005
				629.883	5.19863e-005
				631.348	9.25944e-005
				631.348	9.25944e-005
				631.348	9.25944e-005
				632.813	9.28871e-005
				632.813	9.28871e-005
				632.813	9.28871e-005
				634.277	5.06985e-005
				634.277	5.06985e-005
				634.277	5.06985e-005
				635.742	4.91427e-005
				635.742	4.91427e-005
				635.742	4.91427e-005
		637.207	6.94116e-005	637.207	4.79806e-005
		637.207	4.79806e-005	637.207	4.79806e-005
				637.207	4.79806e-005
				638.672	3.61558e-005
				638.672	3.61558e-005
				638.672	3.61558e-005
				640.137	0.000442881
				640.137	0.000442881
				640.137	0.000442881
		641.602	5.22061e-005	641.602	9.85309e-006
		641.602	9.85309e-006	641.602	9.85309e-006
				641.602	9.85309e-006
				643.066	5.26996e-005
				643.066	5.26996e-005
				643.066	5.26996e-005
				644.531	5.53196e-005
				644.531	5.53196e-005
				644.531	5.53196e-005
				645.996	8.7261e-005
				645.996	8.7261e-005
				645.996	8.7261e-005
		647.461	6.20836e-005	647.461	3.04442e-005
		647.461	3.04442e-005	647.461	3.04442e-005
				647.461	3.04442e-005
				648.926	6.95075e-005
				648.926	6.95075e-005
				648.926	6.95075e-005
		650.391	6.58666e-005	650.391	3.48423e-005
		650.391	3.48423e-005	650.391	3.48423e-005
				650.391	3.48423e-005
		651.855	3.82654e-005	651.855	3.20342e-005
		651.855	3.20342e-005	651.855	3.20342e-005
				651.855	3.20342e-005
		653.32	5.55718e-005	653.32	4.70767e-005
		653.32	4.70767e-005	653.32	4.70767e-005
				653.32	4.70767e-005
				654.785	9.99164e-005
				654.785	9.99164e-005
				654.785	9.99164e-005
		656.25	6.41813e-005	656.25	3.1388e-005
		656.25	3.1388e-005	656.25	3.1388e-005
				656.25	3.1388e-005
		657.715	4.07183e-005	657.715	3.09164e-005
		657.715	3.09164e-005	657.715	3.09164e-005
				657.715	3.09164e-005
		659.18	2.2895e-005	659.18	1.87739e-005
		659.18	1.87739e-005	659.18	1.87739e-005
				659.18	1.87739e-005
		660.645	9.15981e-005	660.645	5.11215e-005
		660.645	5.11215e-005	660.645	5.11215e-005
				660.645	5.11215e-005
		662.109	6.4201e-005	662.109	3.5811e-005
		662.109	3.5811e-005	662.109	3.5811e-005
				662.109	3.5811e-005
663.574	5.94365e-005			663.574	1.43461e-005
663.574	1.43461e-005			663.574	1.43461e-005
				663.574	1.43461e-005
				665.039	6.04593e-005
				665.039	6.04593e-005
				665.039	6.04593e-005
		666.504	6.72363e-005	666.504	5.3593e-005
		666.504	5.3593e-005	666.504	5.3593e-005
				666.504	5.3593e-005
				667.969	7.79165e-005
				667.969	7.79165e-005
				667.969	7.79165e-005
		669.434	1.87478e-005	669.434	6.19474e-006
		669.434	6.19474e-006	669.434	6.19474e-006
				669.434	6.19474e-006
		670.898	2.90042e-005	670.898	5.77738e-006
		670.898	5.77738e-006	670.898	5.77738e-006
				670.898	5.77738e-006
				672.363	4.0831e-005
				672.363	4.0831e-005
				672.363	4.0831e-005
				673.828	4.97929e-005
				673.828	4.97929e-005
				673.828	4.97929e-005
				675.293	5.26286e-005
				675.293	5.26286e-005
				675.293	5.26286e-005
				676.758	4.15734e-005
				676.758	4.15734e-005
				676.758	4.15734e-005
				678.223	2.46655e-005
				678.223	2.46655e-005
				678.223	2.46655e-005
				679.688	3.64106e-005
				679.688	3.64106e-005
				679.688	3.64106e-005
				681.152	4.7385e-005
				681.152	4.7385e-005
				681.152	4.7385e-005
				682.617	5.55628e-005
				682.617	5.55628e-005
				682.617	5.55628e-005
				684.082	8.63328e-005
				684.082	8.63328e-005
				684.082	8.63328e-005
				685.547	3.62952e-005
				685.547	3.62952e-005
				685.547	3.62952e-005
				687.012	9.34047e-005
				687.012	9.34047e-005
				687.012	9.34047e-005
				688.477	6.09409e-005
				688.477	6.09409e-005
				688.477	6.09409e-005
				689.941	8.64036e-005
				689.941	8.64036e-005
				689.941	8.64036e-005
				691.406	7.26786e-005
				691.406	7.26786e-005
				691.406	7.26786e-005
		692.871	3.57562e-005	692.871	3.49397e-005
		692.871	3.49397e-005	692.871	3.49397e-005
				692.871	3.49397e-005
		694.336	2.5156e-005	694.336	2.00743e-005
		694.336	2.00743e-005	694.336	2.00743e-005
				694.336	2.00743e-005
		695.801	3.63227e-005	695.801	2.54307e-005
		695.801	2.54307e-005	695.801	2.54307e-005
				695.801	2.54307e-005
		697.266	8.50835e-005	697.266	6.9273e-005
		697.266	6.9273e-005	697.266	6.9273e-005
				697.266	6.9273e-005
		698.73	7.76847e-005	698.73	4.07183e-005
		698.73	4.07183e-005	698.73	4.07183e-005
				698.73	4.07183e-005
				700.195	2.75197e-005
				700.195	2.75197e-005
				700.195	2.75197e-005
701.66	5.924e-005			701.66	3.88479e-005
701.66	3.88479e-005			701.66	3.88479e-005
				701.66	3.88479e-005
		703.125	5.09408e-005	703.125	3.14744e-005
		703.125	3.14744e-005	703.125	3.14744e-005
				703.125	3.14744e-005
				704.59	6.37666e-005
				704.59	6.37666e-005
				704.59	6.37666e-005
				706.055	8.22395e-005
				706.055	8.22395e-005
				706.055	8.22395e-005
		707.52	6.92058e-005	707.52	3.12778e-005
		707.52	3.12778e-005	707.52	3.12778e-005
				707.52	3.12778e-005
				708.984	5.80403e-005
				708.984	5.80403e-005
				708.984	5.80403e-005
				710.449	7.51219e-005
				710.449	7.51219e-005
				710.449	7.51219e-005
				711.914	9.02638e-005
				711.914	9.02638e-005
				711.914	9.02638e-005
		713.379	5.98091e-005	713.379	2.57512e-005
		713.379	2.57512e-005	713.379	2.57512e-005
				713.379	2.57512e-005
		714.844	8.89967e-005	714.844	2.3243e-005
		714.844	2.3243e-005	714.844	2.3243e-005
				714.844	2.3243e-005
				716.309	6.04402e-005
				716.309	6.04402e-005
				716.309	6.04402e-005
		717.773	2.79312e-005	717.773	1.22665e-005
		717.773	1.22665e-005	717.773	1.22665e-005
				717.773	1.22665e-005
				719.238	3.4782e-005
				719.238	3.4782e-005
				719.238	3.4782e-005
		720.703	4.27347e-005	720.703	3.82962e-005
		720.703	3.82962e-005	720.703	3.82962e-005
				720.703	3.82962e-005
				722.168	9.44095e-005
				722.168	9.44095e-005
				722.168	9.44095e-005
723.633	2.29174e-005			723.633	3.19766e-006
723.633	3.19766e-006			723.633	3.19766e-006
				723.633	3.19766e-006
				725.098	7.60475e-005
				725.098	7.60475e-005
				725.098	7.60475e-005
		726.563	7.42714e-005	726.563	2.97844e-005
		726.563	2.97844e-005	726.563	2.97844e-005
				726.563	2.97844e-005
		728.027	4.31795e-005	728.027	2.35692e-005
		728.027	2.35692e-005	728.027	2.35692e-005
				728.027	2.35692e-005
		729.492	7.36308e-005	729.492	7.01687e-005
		729.492	7.01687e-005	729.492	7.01687e-005
				729.492	7.01687e-005
				730.957	7.05689e-005
				730.957	7.05689e-005
				730.957	7.05689e-005
		732.422	5.26289e-005	732.422	3.11976e-005
		732.422	3.11976e-005	732.422	3.11976e-005
				732.422	3.11976e-005
		733.887	0.000100208	733.887	1.49433e-005
		733.887	1.49433e-005	733.887	1.49433e-005
				733.887	1.49433e-005
		735.352	7.6441e-005	735.352	6.59067e-005
		735.352	6.59067e-005	735.352	6.59067e-005
				735.352	6.59067e-005
		736.816	6.83446e-005	736.816	5.24654e-005
		736.816	5.24654e-005	736.816	5.24654e-005
				736.816	5.24654e-005
		738.281	5.13219e-005	738.281	3.40794e-005
		738.281	3.40794e-005	738.281	3.40794e-005
				738.281	3.40794e-005
		739.746	4.84057e-005	739.746	2.67934e-005
		739.746	2.67934e-005	739.746	2.67934e-005
				739.746	2.67934e-005
				741.211	4.69801e-005
				741.211	4.69801e-005
				741.211	4.69801e-005
				742.676	8.82054e-005
				742.676	8.82054e-005
				742.676	8.82054e-005
744.141	0.000107468			744.141	8.83492e-005
744.141	8.83492e-005			744.141	8.83492e-005
				744.141	8.83492e-005
				745.605	4.15491e-005
				745.605	4.15491e-005
				745.605	4.15491e-005
		747.07	5.26737e-005	747.07	4.04226e-005
		747.07	4.04226e-005	747.07	4.04226e-005
				747.07	4.04226e-005
				748.535	6.10662e-005
				748.535	6.10662e-005
				748.535	6.10662e-005
				750	5.33986e-005
				750	5.33986e-005
				750	5.33986e-005
		751.465	3.79387e-005	751.465	2.95915e-005
		751.465	2.95915e-005	751.465	2.95915e-005
				751.465	2.95915e-005
		752.93	4.39069e-005	752.93	4.0841e-005
		752.93	4.0841e-005	752.93	4.0841e-005
				752.93	4.0841e-005
				754.395	3.48662e-005
				754.395	3.48662e-005
				754.395	3.48662e-005
				755.859	4.27059e-005
				755.859	4.27059e-005
				755.859	4.27059e-005
				757.324	4.64977e-005
				757.324	4.64977e-005
				757.324	4.64977e-005
				758.789	4.41402e-005
				758.789	4.41402e-005
				758.789	4.41402e-005
		760.254	4.21853e-005	760.254	3.14906e-005
		760.254	3.14906e-005	760.254	3.14906e-005
				760.254	3.14906e-005
				761.719	6.1811e-005
				761.719	6.1811e-005
				761.719	6.1811e-005
		763.184	3.74639e-005	763.184	2.66263e-005
		763.184	2.66263e-005	763.184	2.66263e-005
				763.184	2.66263e-005
		764.648	7.15402e-005	764.648	3.68961e-005
		764.648	3.68961e-005	764.648	3.68961e-005
				764.648	3.68961e-005
766.113	6.47061e-005			766.113	1.86508e-005
766.113	1.86508e-005			766.113	1.86508e-005
				766.113	1.86508e-005
		767.578	9.12823e-005	767.578	2.28638e-005
		767.578	2.28638e-005	767.578	2.28638e-005
				767.578	2.28638e-005
		769.043	9.61223e-005	769.043	7.3958e-005
		769.043	7.3958e-005	769.043	7.3958e-005
				769.043	7.3958e-005
		770.508	7.35842e-005	770.508	4.76105e-005
		770.508	4.76105e-005	770.508	4.76105e-005
				770.508	4.76105e-005
				771.973	4.93042e-005
				771.973	4.93042e-005
				771.973	4.93042e-005
				773.438	7.12451e-005
				773.438	7.12451e-005
				773.438	7.12451e-005
				774.902	4.03437e-005
				774.902	4.03437e-005
				774.902	4.03437e-005
		776.367	9.52682e-005	776.367	4.07522e-005
		776.367	4.07522e-005	776.367	4.07522e-005
				776.367	4.07522e-005
		777.832	2.0935e-005	777.832	8.39176e-006
		777.832	8.39176e-006	777.832	8.39176e-006
				777.832	8.39176e-006
				779.297	5.73636e-005
				779.297	5.73636e-005
				779.297	5.73636e-005
				780.762	2.24666e-005
				780.762	2.24666e-005
				780.762	2.24666e-005
				782.227	6.49893e-005
				782.227	6.49893e-005
				782.227	6.49893e-005
		783.691	6.45079e-005	783.691	6.21921e-006
		783.691	6.21921e-006	783.691	6.21921e-006
				783.691	6.21921e-006
				785.156	4.54698e-005
				785.156	4.54698e-005
				785.156	4.54698e-005
				786.621	6.25548e-005
				786.621	6.25548e-005
				786.621	6.25548e-005
788.086	4.13053e-005			788.086	2.60366e-005
788.086	2.60366e-005			788.086	2.60366e-005
				788.086	2.60366e-005
				789.551	8.10952e-005
				789.551	8.10952e-005
				789.551	8.10952e-005
				791.016	4.70723e-005
				791.016	4.70723e-005
				791.016	4.70723e-005
				792.48	3.60447e-005
				792.48	3.60447e-005
				792.48	3.60447e-005
				793.945	3.61126e-005
				793.945	3.61126e-005
				793.945	3.61126e-005
				795.41	0.00010768
				795.41	0.00010768
				795.41	0.00010768
				796.875	7.08192e-005
				796.875	7.08192e-005
				796.875	7.08192e-005
		798.34	4.90433e-005	798.34	2.36578e-005
		798.34	2.36578e-005	798.34	2.36578e-005
				798.34	2.36578e-005
		799.805	4.95027e-005	799.805	1.00001e-005
		799.805	1.00001e-005	799.805	1.00001e-005
				799.805	1.00001e-005
		801.27	3.13011e-005	801.27	1.74906e-005
		801.27	1.74906e-005	801.27	1.74906e-005
				801.27	1.74906e-005
		802.734	9.73527e-005	802.734	2.89303e-005
		802.734	2.89303e-005	802.734	2.89303e-005
				802.734	2.89303e-005
				804.199	3.7638e-005
				804.199	3.7638e-005
				804.199	3.7638e-005
				805.664	7.53424e-005
				805.664	7.53424e-005
				805.664	7.53424e-005
		807.129	2.18139e-005	807.129	1.00935e-005
		807.129	1.00935e-005	807.129	1.00935e-005
				807.129	1.00935e-005
		808.594	5.65498e-005	808.594	3.64802e-005
		808.594	3.64802e-005	808.594	3.64802e-005
				808.594	3.64802e-005
				810.059	5.9225e-005
				810.059	5.9225e-005
				810.059	5.9225e-005
				811.523	3.44389e-005
				811.523	3.44389e-005
				811.523	3.44389e-005
		812.988	6.52226e-005	812.988	2.25735e-005
		812.988	2.25735e-005	812.988	2.25735e-005
				812.988	2.25735e-005
		814.453	5.80191e-005	814.453	1.00876e-005
		814.453	1.00876e-005	814.453	1.00876e-005
				814.453	1.00876e-005
				815.918	4.21969e-005
				815.918	4.21969e-005
				815.918	4.21969e-005
				817.383	1.55647e-005
				817.383	1.55647e-005
				817.383	1.55647e-005
		818.848	3.56757e-005	818.848	1.8076e-005
		818.848	1.8076e-005	818.848	1.8076e-005
				818.848	1.8076e-005
				820.313	8.63026e-005
				820.313	8.63026e-005
				820.313	8.63026e-005
		821.777	3.9009e-005	821.777	3.063e-005
		821.777	3.063e-005	821.777	3.063e-005
				821.777	3.063e-005
				823.242	8.16969e-005
				823.242	8.16969e-005
				823.242	8.16969e-005
		824.707	4.59032e-005	824.707	1.75743e-005
		824.707	1.75743e-005	824.707	1.75743e-005
				824.707	1.75743e-005
		826.172	5.10508e-005	826.172	3.53657e-005
		826.172	3.53657e-005	826.172	3.53657e-005
				826.172	3.53657e-005
		827.637	6.49597e-005	827.637	3.63819e-005
		827.637	3.63819e-005	827.637	3.63819e-005
				827.637	3.63819e-005
				829.102	7.10228e-005
				829.102	7.10228e-005
				829.102	7.10228e-005
				830.566	3.3195e-005
				830.566	3.3195e-005
				830.566	3.3195e-005
				832.031	4.95237e-005
				832.031	4.95237e-005
				832.031	4.95237e-005
		833.496	7.05316e-005	833.496	4.38296e-006
		833.496	4.38296e-006	833.496	4.38296e-006
				833.496	4.38296e-006
834.961	7.01822e-005			834.961	2.08734e-005
834.961	2.08734e-005			834.961	2.08734e-005
				834.961	2.08734e-005
		836.426	2.99104e-005	836.426	2.0606e-005
		836.426	2.0606e-005	836.426	2.0606e-005
				836.426	2.0606e-005
		837.891	3.73439e-005	837.891	3.12779e-005
		837.891	3.12779e-005	837.891	3.12779e-005
				837.891	3.12779e-005
				839.355	7.8062e-005
				839.355	7.8062e-005
				839.355	7.8062e-005
		840.82	6.70926e-005	840.82	3.00718e-005
		840.82	3.00718e-005	840.82	3.00718e-005
				840.82	3.00718e-005
				842.285	5.59006e-005
				842.285	5.59006e-005
				842.285	5.59006e-005
				843.75	1.97312e-005
				843.75	1.97312e-005
				843.75	1.97312e-005
		845.215	6.56368e-005	845.215	2.11592e-005
		845.215	2.11592e-005	845.215	2.11592e-005
				845.215	2.11592e-005
		846.68	5.18006e-005	846.68	3.2093e-005
		846.68	3.2093e-005	846.68	3.2093e-005
				846.68	3.2093e-005
				848.145	5.8241e-005
				848.145	5.8241e-005
				848.145	5.8241e-005
				849.609	5.26604e-005
				849.609	5.26604e-005
				849.609	5.26604e-005
		851.074	5.59306e-005	851.074	1.3857e-005
		851.074	1.3857e-005	851.074	1.3857e-005
				851.074	1.3857e-005
		852.539	4.93139e-005	852.539	2.94843e-005
		852.539	2.94843e-005	852.539	2.94843e-005
				852.539	2.94843e-005
		854.004	4.66391e-005	854.004	3.10738e-005
		854.004	3.10738e-005	854.004	3.10738e-005
				854.004	3.10738e-005
				855.469	4.50603e-005
				855.469	4.50603e-005
				855.469	4.50603e-005
				856.934	3.27538e-005
				856.934	3.27538e-005
				856.934	3.27538e-005
				858.398	8.25393e-005
				858.398	8.25393e-005
				858.398	8.25393e-005
				859.863	3.35191e-005
				859.863	3.35191e-005
				859.863	3.35191e-005
		861.328	5.22307e-005	861.328	3.05302e-005
		861.328	3.05302e-005	861.328	3.05302e-005
				861.328	3.05302e-005
				862.793	3.45598e-005
				862.793	3.45598e-005
				862.793	3.45598e-005
				864.258	2.05305e-005
				864.258	2.05305e-005
				864.258	2.05305e-005
		865.723	5.0685e-005	865.723	4.77641e-006
		865.723	4.77641e-006	865.723	4.77641e-006
				865.723	4.77641e-006
				867.188	4.88384e-005
				867.188	4.88384e-005
				867.188	4.88384e-005
		868.652	4.30108e-005	868.652	3.81245e-005
		868.652	3.81245e-005	868.652	3.81245e-005
				868.652	3.81245e-005
		870.117	5.57155e-005	870.117	4.88209e-005
		870.117	4.88209e-005	870.117	4.88209e-005
				870.117	4.88209e-005
		871.582	2.90532e-005	871.582	2.61943e-005
		871.582	2.61943e-005	871.582	2.61943e-005
				871.582	2.61943e-005
				873.047	5.89191e-005
				873.047	5.89191e-005
				873.047	5.89191e-005
		874.512	5.38112e-005	874.512	3.43729e-005
		874.512	3.43729e-005	874.512	3.43729e-005
				874.512	3.43729e-005
		875.977	9.30015e-005	875.977	2.76925e-005
		875.977	2.76925e-005	875.977	2.76925e-005
				875.977	2.76925e-005
				877.441	7.72694e-005
				877.441	7.72694e-005
				877.441	7.72694e-005
				878.906	4.49976e-005
				878.906	4.49976e-005
				878.906	4.49976e-005
		880.371	0.000110918	880.371	1.47494e-005
		880.371	1.47494e-005	880.371	1.47494e-005
				880.371	1.47494e-005
		881.836	4.3931e-005	881.836	2.53088e-005
		881.836	2.53088e-005	881.836	2.53088e-005
				881.836	2.53088e-005
		883.301	4.92332e-005	883.301	3.5638e-005
		883.301	3.5638e-005	883.301	3.5638e-005
				883.301	3.5638e-005
884.766	7.01319e-005			884.766	1.10501e-005
884.766	1.10501e-005			884.766	1.10501e-005
				884.766	1.10501e-005
				886.23	5.50505e-005
				886.23	5.50505e-005
				886.23	5.50505e-005
				887.695	3.63155e-005
				887.695	3.63155e-005
				887.695	3.63155e-005
				889.16	7.23464e-005
				889.16	7.23464e-005
				889.16	7.23464e-005
		890.625	5.95941e-005	890.625	4.60783e-005
		890.625	4.60783e-005	890.625	4.60783e-005
				890.625	4.60783e-005
				892.09	5.9437e-005
				892.09	5.9437e-005
				892.09	5.9437e-005
		893.555	3.15862e-005	893.555	3.08024e-005
		893.555	3.08024e-005	893.555	3.08024e-005
				893.555	3.08024e-005
				895.02	4.82458e-005
				895.02	4.82458e-005
				895.02	4.82458e-005
		896.484	4.33742e-005	896.484	2.73831e-005
		896.484	2.73831e-005	896.484	2.73831e-005
				896.484	2.73831e-005
				897.949	9.35465e-005
				897.949	9.35465e-005
				897.949	9.35465e-005
				899.414	1.88169e-005
				899.414	1.88169e-005
				899.414	1.88169e-005
				900.879	6.91078e-005
				900.879	6.91078e-005
				900.879	6.91078e-005
		902.344	4.47432e-005	902.344	2.17205e-005
		902.344	2.17205e-005	902.344	2.17205e-005
				902.344	2.17205e-005
		903.809	4.46212e-005	903.809	3.66218e-005
		903.809	3.66218e-005	903.809	3.66218e-005
				903.809	3.66218e-005
				905.273	4.48911e-005
				905.273	4.48911e-005
				905.273	4.48911e-005
		906.738	4.79531e-005	906.738	5.07064e-006
		906.738	5.07064e-006	906.738	5.07064e-006
				906.738	5.07064e-006
		908.203	3.91447e-005	908.203	1.7345e-005
		908.203	1.7345e-005	908.203	1.7345e-005
				908.203	1.7345e-005
				909.668	7.15127e-005
				909.668	7.15127e-005
				909.668	7.15127e-005
				911.133	4.84589e-005
				911.133	4.84589e-005
				911.133	4.84589e-005
				912.598	3.00257e-005
				912.598	3.00257e-005
				912.598	3.00257e-005
		914.063	6.2803e-005	914.063	3.23725e-005
		914.063	3.23725e-005	914.063	3.23725e-005
				914.063	3.23725e-005
				915.527	3.5941e-005
				915.527	3.5941e-005
				915.527	3.5941e-005
				916.992	3.73933e-005
				916.992	3.73933e-005
				916.992	3.73933e-005
				918.457	2.60992e-005
				918.457	2.60992e-005
				918.457	2.60992e-005
		919.922	6.42512e-005	919.922	3.39965e-005
		919.922	3.39965e-005	919.922	3.39965e-005
				919.922	3.39965e-005
		921.387	6.95913e-005	921.387	5.3548e-005
		921.387	5.3548e-005	921.387	5.3548e-005
				921.387	5.3548e-005
				922.852	4.04706e-005
				922.852	4.04706e-005
				922.852	4.04706e-005
				924.316	3.40464e-005
				924.316	3.40464e-005
				924.316	3.40464e-005
		925.781	4.65437e-005	925.781	4.06685e-005
		925.781	4.06685e-005	925.781	4.06685e-005
				925.781	4.06685e-005
		927.246	5.06346e-005	927.246	2.15599e-005
		927.246	2.15599e-005	927.246	2.15599e-005
				927.246	2.15599e-005
				928.711	7.10383e-005
				928.711	7.10383e-005
				928.711	7.10383e-005
		930.176	3.16631e-005	930.176	2.35215e-005
		930.176	2.35215e-005	930.176	2.35215e-005
				930.176	2.35215e-005
		931.641	4.57525e-005	931.641	2.24259e-005
		931.641	2.24259e-005	931.641	2.24259e-005
				931.641	2.24259e-005
		933.105	4.77442e-005	933.105	2.56191e-005
		933.105	2.56191e-005	933.105	2.56191e-005
				933.105	2.56191e-005
				934.57	7.24546e-005
				934.57	7.24546e-005
				934.57	7.24546e-005
		936.035	6.45779e-005	936.035	4.87067e-005
		936.035	4.87067e-005	936.035	4.87067e-005
				936.035	4.87067e-005
				937.5	2.20079e-005
				937.5	2.20079e-005
				937.5	2.20079e-005
		938.965	4.67143e-005	938.965	3.58165e-005
		938.965	3.58165e-005	938.965	3.58165e-005
				938.965	3.58165e-005
		940.43	4.95043e-005	940.43	4.01962e-005
		940.43	4.01962e-005	940.43	4.01962e-005
				940.43	4.01962e-005
				941.895	2.71398e-005
				941.895	2.71398e-005
				941.895	2.71398e-005
		943.359	5.68611e-005	943.359	2.56997e-005
		943.359	2.56997e-005	943.359	2.56997e-005
				943.359	2.56997e-005
		944.824	6.03249e-005	944.824	5.09748e-005
		944.824	5.09748e-005	944.824	5.09748e-005
				944.824	5.09748e-005
		946.289	5.27838e-005	946.289	4.51409e-005
		946.289	4.51409e-005	946.289	4.51409e-005
				946.289	4.51409e-005
				947.754	5.04374e-005
				947.754	5.04374e-005
				947.754	5.04374e-005
		949.219	3.865e-005	949.219	2.44835e-005
		949.219	2.44835e-005	949.219	2.44835e-005
				949.219	2.44835e-005
		950.684	4.12823e-005	950.684	9.37291e-006
		950.684	9.37291e-006	950.684	9.37291e-006
				950.684	9.37291e-006
				952.148	3.4276e-005
				952.148	3.4276e-005
				952.148	3.4276e-005
		953.613	2.90819e-005	953.613	2.39528e-005
		953.613	2.39528e-005	953.613	2.39528e-005
				953.613	2.39528e-005
				955.078	4.49154e-005
				955.078	4.49154e-005
				955.078	4.49154e-005
				956.543	3.70017e-005
				956.543	3.70017e-005
				956.543	3.70017e-005
		958.008	4.81647e-005	958.008	3.10513e-005
		958.008	3.10513e-005	958.008	3.10513e-005
				958.008	3.10513e-005
		959.473	4.22477e-005	959.473	3.39623e-006
		959.473	3.39623e-006	959.473	3.39623e-006
				959.473	3.39623e-006
		960.938	2.70906e-005	960.938	1.9403e-005
		960.938	1.9403e-005	960.938	1.9403e-005
				960.938	1.9403e-005
		962.402	3.99072e-005	962.402	1.18991e-005
		962.402	1.18991e-005	962.402	1.18991e-005
				962.402	1.18991e-005
		963.867	4.53444e-005	963.867	4.40885e-005
		963.867	4.40885e-005	963.867	4.40885e-005
				963.867	4.40885e-005
965.332	3.51371e-005			965.332	1.14994e-005
965.332	1.14994e-005			965.332	1.14994e-005
				965.332	1.14994e-005
				966.797	5.03701e-005
				966.797	5.03701e-005
				966.797	5.03701e-005
				968.262	4.83329e-005
				968.262	4.83329e-005
				968.262	4.83329e-005
				969.727	5.46631e-005
				969.727	5.46631e-005
				969.727	5.46631e-005
		971.191	2.5091e-005	971.191	1.62517e-005
		971.191	1.62517e-005	971.191	1.62517e-005
				971.191	1.62517e-005
				972.656	5.93623e-005
				972.656	5.93623e-005
				972.656	5.93623e-005
		974.121	2.6681e-005	974.121	2.39653e-005
		974.121	2.39653e-005	974.121	2.39653e-005
				974.121	2.39653e-005
				975.586	2.59767e-005
				975.586	2.59767e-005
				975.586	2.59767e-005
		977.051	2.23689e-005	977.051	1.79136e-005
		977.051	1.79136e-005	977.051	1.79136e-005
				977.051	1.79136e-005
		978.516	2.62627e-005	978.516	3.74892e-006
		978.516	3.74892e-006	978.516	3.74892e-006
				978.516	3.74892e-006
		979.98	2.20664e-005	979.98	1.42779e-005
		979.98	1.42779e-005	979.98	1.42779e-005
				979.98	1.42779e-005
		981.445	1.1854e-005	981.445	1.06201e-005
		981.445	1.06201e-005	981.445	1.06201e-005
				981.445	1.06201e-005
		982.91	3.76683e-005	982.91	2.49092e-005
		982.91	2.49092e-005	982.91	2.49092e-005
				982.91	2.49092e-005
				984.375	5.18683e-005
				984.375	5.18683e-005
				984.375	5.18683e-005
		985.84	1.3262e-005	985.84	7.24196e-006
		985.84	7.24196e-006	985.84	7.24196e-006
				985.84	7.24196e-006
		987.305	5.41053e-005	987.305	2.81622e-005
		987.305	2.81622e-005	987.305	2.81622e-005
				987.305	2.81622e-005
				988.77	1.2286e-005
				988.77	1.2286e-005
				988.77	1.2286e-005
		990.234	2.01149e-005	990.234	6.94293e-006
		990.234	6.94293e-006	990.234	6.94293e-006
				990.234	6.94293e-006
				991.699	9.41498e-005
				991.699	9.41498e-005
				991.699	9.41498e-005
				993.164	2.38739e-005
				993.164	2.38739e-005
				993.164	2.38739e-005
		994.629	2.56554e-005	994.629	1.58047e-005
		994.629	1.58047e-005	994.629	1.58047e-005
				994.629	1.58047e-005
		996.094	4.03543e-005	996.094	3.74502e-005
		996.094	3.74502e-005	996.094	3.74502e-005
				996.094	3.74502e-005
		997.559	5.27952e-005	997.559	1.93359e-005
		997.559	1.93359e-005	997.559	1.93359e-005
				997.559	1.93359e-005
		999.023	6.48613e-005	999.023	4.74249e-005
		999.023	4.74249e-005	999.023	4.74249e-005
				999.023	4.74249e-005
				1000.49	3.99196e-005
				1000.49	3.99196e-005
				1000.49	3.99196e-005
		1001.95	6.11706e-005	1001.95	6.0081e-005
		1001.95	6.0081e-005	1001.95	6.0081e-005
				1001.95	6.0081e-005
				1003.42	2.4192e-005
				1003.42	2.4192e-005
				1003.42	2.4192e-005
				1004.88	4.13739e-005
				1004.88	4.13739e-005
				1004.88	4.13739e-005
				1006.35	6.13086e-005
				1006.35	6.13086e-005
				1006.35	6.13086e-005
				1007.81	2.02494e-005
				1007.81	2.02494e-005
				1007.81	2.02494e-005
		1009.28	2.43916e-005	1009.28	2.13657e-005
		1009.28	2.13657e-005	1009.28	2.13657e-005
				1009.28	2.13657e-005
				1010.74	3.48238e-005
				1010.74	3.48238e-005
				1010.74	3.48238e-005
				1012.21	7.10113e-005
				1012.21	7.10113e-005
				1012.21	7.10113e-005
				1013.67	5.11389e-005
				1013.67	5.11389e-005
				1013.67	5.11389e-005
				1015.14	2.70343e-005
				1015.14	2.70343e-005
				1015.14	2.70343e-005
		1016.6	5.6776e-005	1016.6	1.32561e-005
		1016.6	1.32561e-005	1016.6	1.32561e-005
				1016.6	1.32561e-005
				1018.07	6.8529e-005
				1018.07	6.8529e-005
				1018.07	6.8529e-005
				1019.53	6.75303e-005
				1019.53	6.75303e-005
				1019.53	6.75303e-005
		1021	5.38002e-005	1021	3.58724e-005
		1021	3.58724e-005	1021	3.58724e-005
				1021	3.58724e-005
1022.46	7.94025e-005			1022.46	2.50118e-005
1022.46	2.50118e-005			1022.46	2.50118e-005
				1022.46	2.50118e-005
				1023.93	4.99245e-005
				1023.93	4.99245e-005
				1023.93	4.99245e-005
				1025.39	5.55045e-005
				1025.39	5.55045e-005
				1025.39	5.55045e-005
				1026.86	6.75009e-005
				1026.86	6.75009e-005
				1026.86	6.75009e-005
				1028.32	6.28843e-005
				1028.32	6.28843e-005
				1028.32	6.28843e-005
				1029.79	1.17752e-005
				1029.79	1.17752e-005
				1029.79	1.17752e-005
				1031.25	5.12128e-005
				1031.25	5.12128e-005
				1031.25	5.12128e-005
		1032.71	2.30206e-005	1032.71	1.64336e-005
		1032.71	1.64336e-005	1032.71	1.64336e-005
				1032.71	1.64336e-005
				1034.18	3.43337e-005
				1034.18	3.43337e-005
				1034.18	3.43337e-005
				1035.64	8.13841e-005
				1035.64	8.13841e-005
				1035.64	8.13841e-005
		1037.11	5.15962e-005	1037.11	2.99426e-005
		1037.11	2.99426e-005	1037.11	2.99426e-005
				1037.11	2.99426e-005
				1038.57	9.16861e-005
				1038.57	9.16861e-005
				1038.57	9.16861e-005
		1040.04	3.71677e-005	1040.04	3.586e-005
		1040.04	3.586e-005	1040.04	3.586e-005
				1040.04	3.586e-005
				1041.5	7.14549e-005
				1041.5	7.14549e-005
				1041.5	7.14549e-005
		1042.97	7.88332e-005	1042.97	7.52955e-005
		1042.97	7.52955e-005	1042.97	7.52955e-005
				1042.97	7.52955e-005
				1044.43	2.38646e-005
				1044.43	2.38646e-005
				1044.43	2.38646e-005
				1045.9	4.79748e-005
				1045.9	4.79748e-005
				1045.9	4.79748e-005
		1047.36	3.36079e-005	1047.36	2.79361e-005
		1047.36	2.79361e-005	1047.36	2.79361e-005
				1047.36	2.79361e-005
				1048.83	4.02667e-005
				1048.83	4.02667e-005
				1048.83	4.02667e-005
		1050.29	8.22054e-005	1050.29	2.08445e-006
		1050.29	2.08445e-006	1050.29	2.08445e-006
				1050.29	2.08445e-006
				1051.76	2.96021e-005
				1051.76	2.96021e-005
				1051.76	2.96021e-005
		1053.22	4.668e-005	1053.22	2.97053e-005
		1053.22	2.97053e-005	1053.22	2.97053e-005
				1053.22	2.97053e-005
				1054.69	4.04502e-005
				1054.69	4.04502e-005
				1054.69	4.04502e-005
				1056.15	6.46272e-005
				1056.15	6.46272e-005
				1056.15	6.46272e-005
		1057.62	2.4559e-005	1057.62	2.13781e-005
		1057.62	2.13781e-005	1057.62	2.13781e-005
				1057.62	2.13781e-005
		1059.08	4.39509e-005	1059.08	4.2279e-005
		1059.08	4.2279e-005	1059.08	4.2279e-005
				1059.08	4.2279e-005
				1060.55	3.98794e-005
				1060.55	3.98794e-005
				1060.55	3.98794e-005
		1062.01	3.36025e-005	1062.01	2.29216e-005
		1062.01	2.29216e-005	1062.01	2.29216e-005
				1062.01	2.29216e-005
		1063.48	2.59379e-005	1063.48	1.56834e-005
		1063.48	1.56834e-005	1063.48	1.56834e-005
				1063.48	1.56834e-005
				1064.94	3.76748e-005
				1064.94	3.76748e-005
				1064.94	3.76748e-005
		1066.41	6.98118e-005	1066.41	2.68459e-005
		1066.41	2.68459e-005	1066.41	2.68459e-005
				1066.41	2.68459e-005
				1067.87	3.13196e-005
				1067.87	3.13196e-005
				1067.87	3.13196e-005
				1069.34	2.24026e-005
				1069.34	2.24026e-005
				1069.34	2.24026e-005
		1070.8	8.30886e-005	1070.8	1.7396e-005
		1070.8	1.7396e-005	1070.8	1.7396e-005
				1070.8	1.7396e-005
				1072.27	4.3896e-005
				1072.27	4.3896e-005
				1072.27	4.3896e-005
		1073.73	5.45926e-005	1073.73	4.76233e-005
		1073.73	4.76233e-005	1073.73	4.76233e-005
				1073.73	4.76233e-005
				1075.2	4.48226e-005
				1075.2	4.48226e-005
				1075.2	4.48226e-005
		1076.66	5.85507e-005	1076.66	4.32513e-005
		1076.66	4.32513e-005	1076.66	4.32513e-005
				1076.66	4.32513e-005
		1078.13	4.10736e-005	1078.13	3.03607e-005
		1078.13	3.03607e-005	1078.13	3.03607e-005
				1078.13	3.03607e-005
				1079.59	2.07815e-005
				1079.59	2.07815e-005
				1079.59	2.07815e-005
		1081.05	5.69177e-005	1081.05	1.05074e-005
		1081.05	1.05074e-005	1081.05	1.05074e-005
				1081.05	1.05074e-005
1082.52	5.02082e-005			1082.52	3.12805e-005
1082.52	3.12805e-005			1082.52	3.12805e-005
				1082.52	3.12805e-005
		1083.98	1.66146e-005	1083.98	5.31709e-006
		1083.98	5.31709e-006	1083.98	5.31709e-006
				1083.98	5.31709e-006
		1085.45	1.52837e-005	1085.45	1.30619e-005
		1085.45	1.30619e-005	1085.45	1.30619e-005
				1085.45	1.30619e-005
		1086.91	4.67113e-005	1086.91	4.5258e-005
		1086.91	4.5258e-005	1086.91	4.5258e-005
				1086.91	4.5258e-005
		1088.38	3.53329e-005	1088.38	7.59466e-006
		1088.38	7.59466e-006	1088.38	7.59466e-006
				1088.38	7.59466e-006
		1089.84	6.27275e-005	1089.84	5.21979e-005
		1089.84	5.21979e-005	1089.84	5.21979e-005
				1089.84	5.21979e-005
		1091.31	1.55127e-005	1091.31	1.19635e-005
		1091.31	1.19635e-005	1091.31	1.19635e-005
				1091.31	1.19635e-005
				1092.77	3.48088e-005
				1092.77	3.48088e-005
				1092.77	3.48088e-005
		1094.24	3.88349e-005	1094.24	1.0488e-005
		1094.24	1.0488e-005	1094.24	1.0488e-005
				1094.24	1.0488e-005
				1095.7	6.2156e-005
				1095.7	6.2156e-005
				1095.7	6.2156e-005
		1097.17	2.12706e-005	1097.17	8.60961e-006
		1097.17	8.60961e-006	1097.17	8.60961e-006
				1097.17	8.60961e-006
		1098.63	1.58278e-005	1098.63	1.11502e-005
		1098.63	1.11502e-005	1098.63	1.11502e-005
				1098.63	1.11502e-005
				1100.1	3.12741e-005
				1100.1	3.12741e-005
				1100.1	3.12741e-005
		1101.56	5.15217e-005	1101.56	2.00627e-005
		1101.56	2.00627e-005	1101.56	2.00627e-005
				1101.56	2.00627e-005
				1103.03	4.92036e-005
				1103.03	4.92036e-005
				1103.03	4.92036e-005
				1104.49	3.47241e-005
				1104.49	3.47241e-005
				1104.49	3.47241e-005
				1105.96	3.07223e-005
				1105.96	3.07223e-005
				1105.96	3.07223e-005
				1107.42	3.89862e-005
				1107.42	3.89862e-005
				1107.42	3.89862e-005
				1108.89	1.80946e-005
				1108.89	1.80946e-005
				1108.89	1.80946e-005
		1110.35	3.78587e-005	1110.35	2.58388e-005
		1110.35	2.58388e-005	1110.35	2.58388e-005
				1110.35	2.58388e-005
				1111.82	3.17967e-005
				1111.82	3.17967e-005
				1111.82	3.17967e-005
		1113.28	3.76345e-005	1113.28	3.55663e-005
		1113.28	3.55663e-005	1113.28	3.55663e-005
				1113.28	3.55663e-005
1114.75	2.79503e-005			1114.75	2.36436e-005
1114.75	2.36436e-005			1114.75	2.36436e-005
				1114.75	2.36436e-005
				1116.21	3.58828e-005
				1116.21	3.58828e-005
				1116.21	3.58828e-005
		1117.68	3.87909e-005	1117.68	1.70849e-005
		1117.68	1.70849e-005	1117.68	1.70849e-005
				1117.68	1.70849e-005
		1119.14	5.16436e-005	1119.14	1.0128e-005
		1119.14	1.0128e-005	1119.14	1.0128e-005
				1119.14	1.0128e-005
		1120.61	3.00678e-005	1120.61	6.06209e-006
		1120.61	6.06209e-006	1120.61	6.06209e-006
				1120.61	6.06209e-006
				1122.07	5.10063e-005
				1122.07	5.10063e-005
				1122.07	5.10063e-005
		1123.54	1.85119e-005	1123.54	1.35482e-005
		1123.54	1.35482e-005	1123.54	1.35482e-005
				1123.54	1.35482e-005
				1125	5.18579e-005
				1125	5.18579e-005
				1125	5.18579e-005
		1126.46	5.67046e-005	1126.46	1.48666e-005
		1126.46	1.48666e-005	1126.46	1.48666e-005
				1126.46	1.48666e-005
				1127.93	3.33118e-005
				1127.93	3.33118e-005
				1127.93	3.33118e-005
				1129.39	4.05184e-005
				1129.39	4.05184e-005
				1129.39	4.05184e-005
		1130.86	4.96029e-005	1130.86	4.49949e-005
		1130.86	4.49949e-005	1130.86	4.49949e-005
				1130.86	4.49949e-005
				1132.32	3.87368e-005
				1132.32	3.87368e-005
				1132.32	3.87368e-005
				1133.79	4.1328e-005
				1133.79	4.1328e-005
				1133.79	4.1328e-005
				1135.25	4.43292e-005
				1135.25	4.43292e-005
				1135.25	4.43292e-005
		1136.72	4.16e-005	1136.72	2.58173e-005
		1136.72	2.58173e-005	1136.72	2.58173e-005
				1136.72	2.58173e-005
		1138.18	4.09897e-005	1138.18	2.63216e-005
		1138.18	2.63216e-005	1138.18	2.63216e-005
				1138.18	2.63216e-005
		1139.65	6.45828e-005	1139.65	3.85159e-005
		1139.65	3.85159e-005	1139.65	3.85159e-005
				1139.65	3.85159e-005
		1141.11	3.94604e-005	1141.11	2.11127e-005
		1141.11	2.11127e-005	1141.11	2.11127e-005
				1141.11	2.11127e-005
		1142.58	6.38009e-005	1142.58	4.83874e-005
		1142.58	4.83874e-005	1142.58	4.83874e-005
				1142.58	4.83874e-005
				1144.04	6.72487e-005
				1144.04	6.72487e-005
				1144.04	6.72487e-005
				1145.51	3.64719e-005
				1145.51	3.64719e-005
				1145.51	3.64719e-005
1146.97	6.62701e-005			1146.97	5.46118e-005
1146.97	5.46118e-005			1146.97	5.46118e-005
				1146.97	5.46118e-005
		1148.44	2.46401e-005	1148.44	7.49003e-006
		1148.44	7.49003e-006	1148.44	7.49003e-006
				1148.44	7.49003e-006
		1149.9	4.19435e-005	1149.9	2.94962e-005
		1149.9	2.94962e-005	1149.9	2.94962e-005
				1149.9	2.94962e-005
		1151.37	8.01639e-005	1151.37	4.30083e-005
		1151.37	4.30083e-005	1151.37	4.30083e-005
				1151.37	4.30083e-005
		1152.83	3.4921e-005	1152.83	1.92935e-005
		1152.83	1.92935e-005	1152.83	1.92935e-005
				1152.83	1.92935e-005
				1154.3	8.94546e-005
				1154.3	8.94546e-005
				1154.3	8.94546e-005
				1155.76	4.04718e-005
				1155.76	4.04718e-005
				1155.76	4.04718e-005
				1157.23	2.57023e-005
				1157.23	2.57023e-005
				1157.23	2.57023e-005
		1158.69	4.42628e-005	1158.69	2.94124e-005
		1158.69	2.94124e-005	1158.69	2.94124e-005
				1158.69	2.94124e-005
				1160.16	9.33169e-006
				1160.16	9.33169e-006
				1160.16	9.33169e-006
				1161.62	2.53919e-005
				1161.62	2.53919e-005
				1161.62	2.53919e-005
		1163.09	3.75374e-005	1163.09	1.60988e-005
		1163.09	1.60988e-005	1163.09	1.60988e-005
				1163.09	1.60988e-005
				1164.55	5.34769e-005
				1164.55	5.34769e-005
				1164.55	5.34769e-005
				1166.02	4.82253e-005
				1166.02	4.82253e-005
				1166.02	4.82253e-005
		1167.48	6.18876e-005	1167.48	3.58756e-005
		1167.48	3.58756e-005	1167.48	3.58756e-005
				1167.48	3.58756e-005
				1168.95	4.75599e-005
				1168.95	4.75599e-005
				1168.95	4.75599e-005
		1170.41	5.1235e-005	1170.41	1.54557e-005
		1170.41	1.54557e-005	1170.41	1.54557e-005
				1170.41	1.54557e-005
				1171.88	5.02723e-005
				1171.88	5.02723e-005
				1171.88	5.02723e-005
				1173.34	4.34989e-005
				1173.34	4.34989e-005
				1173.34	4.34989e-005
				1174.8	5.77822e-005
				1174.8	5.77822e-005
				1174.8	5.77822e-005
				1176.27	5.57121e-005
				1176.27	5.57121e-005
				1176.27	5.57121e-005
		1177.73	5.52423e-005	1177.73	2.55422e-005
		1177.73	2.55422e-005	1177.73	2.55422e-005
				1177.73	2.55422e-005
		1179.2	2.18494e-005	1179.2	1.6214e-005
		1179.2	1.6214e-005	1179.2	1.6214e-005
				1179.2	1.6214e-005
1180.66	4.67696e-005			1180.66	8.78436e-006
1180.66	8.78436e-006			1180.66	8.78436e-006
				1180.66	8.78436e-006
		1182.13	3.36971e-005	1182.13	2.23543e-005
		1182.13	2.23543e-005	1182.13	2.23543e-005
				1182.13	2.23543e-005
		1183.59	5.32999e-005	1183.59	3.8613e-005
		1183.59	3.8613e-005	1183.59	3.8613e-005
				1183.59	3.8613e-005
				1185.06	5.3819e-005
				1185.06	5.3819e-005
				1185.06	5.3819e-005
				1186.52	7.57042e-005
				1186.52	7.57042e-005
				1186.52	7.57042e-005
				1187.99	6.89616e-005
				1187.99	6.89616e-005
				1187.99	6.89616e-005
				1189.45	2.10761e-005
				1189.45	2.10761e-005
				1189.45	2.10761e-005
		1190.92	4.81947e-005	1190.92	4.0725e-005
		1190.92	4.0725e-005	1190.92	4.0725e-005
				1190.92	4.0725e-005
		1192.38	4.09057e-005	1192.38	3.05027e-005
		1192.38	3.05027e-005	1192.38	3.05027e-005
				1192.38	3.05027e-005
				1193.85	3.99311e-005
				1193.85	3.99311e-005
				1193.85	3.99311e-005
		1195.31	6.67672e-005	1195.31	1.61536e-005
		1195.31	1.61536e-005	1195.31	1.61536e-005
				1195.31	1.61536e-005
		1196.78	2.75278e-005	1196.78	2.56878e-005
		1196.78	2.56878e-005	1196.78	2.56878e-005
				1196.78	2.56878e-005
				1198.24	3.91181e-005
				1198.24	3.91181e-005
				1198.24	3.91181e-005
				1199.71	4.07701e-005
				1199.71	4.07701e-005
				1199.71	4.07701e-005
				1201.17	4.10392e-005
				1201.17	4.10392e-005
				1201.17	4.10392e-005
				1202.64	2.03453e-005
				1202.64	2.03453e-005
				1202.64	2.03453e-005
				1204.1	4.16471e-005
				1204.1	4.16471e-005
				1204.1	4.16471e-005
		1205.57	2.67443e-005	1205.57	6.91835e-006
		1205.57	6.91835e-006	1205.57	6.91835e-006
				1205.57	6.91835e-006
				1207.03	2.96834e-005
				1207.03	2.96834e-005
				1207.03	2.96834e-005
				1208.5	4.62875e-005
				1208.5	4.62875e-005
				1208.5	4.62875e-005
				1209.96	1.75919e-005
				1209.96	1.75919e-005
				1209.96	1.75919e-005
				1211.43	2.84273e-005
				1211.43	2.84273e-005
				1211.43	2.84273e-005
				1212.89	1.63703e-005
				1212.89	1.63703e-005
				1212.89	1.63703e-005
				1214.36	5.62486e-005
				1214.36	5.62486e-005
				1214.36	5.62486e-005
				1215.82	3.01267e-005
				1215.82	3.01267e-005
				1215.82	3.01267e-005
		1217.29	5.37129e-005	1217.29	4.90741e-005
		1217.29	4.90741e-005	1217.29	4.90741e-005
				1217.29	4.90741e-005
		1218.75	2.93124e-005	1218.75	1.70929e-005
		1218.75	1.70929e-005	1218.75	1.70929e-005
				1218.75	1.70929e-005
		1220.21	2.15244e-005	1220.21	1.29173e-005
		1220.21	1.29173e-005	1220.21	1.29173e-005
				1220.21	1.29173e-005
		1221.68	3.72584e-005	1221.68	2.38978e-005
		1221.68	2.38978e-005	1221.68	2.38978e-005
				1221.68	2.38978e-005
				1223.14	3.58902e-005
				1223.14	3.58902e-005
				1223.14	3.58902e-005
				1224.61	2.93562e-005
				1224.61	2.93562e-005
				1224.61	2.93562e-005
				1226.07	4.01497e-005
				1226.07	4.01497e-005
				1226.07	4.01497e-005
				1227.54	2.18061e-005
				1227.54	2.18061e-005
				1227.54	2.18061e-005
		1229	5.32033e-005	1229	1.62014e-005
		1229	1.62014e-005	1229	1.62014e-005
				1229	1.62014e-005
		1230.47	7.33019e-005	1230.47	5.83296e-005
		1230.47	5.83296e-005	1230.47	5.83296e-005
				1230.47	5.83296e-005
		1231.93	3.82023e-005	1231.93	1.87441e-005
		1231.93	1.87441e-005	1231.93	1.87441e-005
				1231.93	1.87441e-005
				1233.4	4.39115e-005
				1233.4	4.39115e-005
				1233.4	4.39115e-005
		1234.86	2.52763e-005	1234.86	2.11523e-005
		1234.86	2.11523e-005	1234.86	2.11523e-005
				1234.86	2.11523e-005
				1236.33	3.42598e-005
				1236.33	3.42598e-005
				1236.33	3.42598e-005
		1237.79	4.91178e-005	1237.79	2.58539e-005
		1237.79	2.58539e-005	1237.79	2.58539e-005
				1237.79	2.58539e-005
				1239.26	4.77093e-005
				1239.26	4.77093e-005
				1239.26	4.77093e-005
				1240.72	3.75489e-005
				1240.72	3.75489e-005
				1240.72	3.75489e-005
		1242.19	2.71288e-005	1242.19	1.45362e-005
		1242.19	1.45362e-005	1242.19	1.45362e-005
				1242.19	1.45362e-005
		1243.65	4.84076e-005	1243.65	1.91268e-005
		1243.65	1.91268e-005	1243.65	1.91268e-005
				1243.65	1.91268e-005
		1245.12	3.83573e-005	1245.12	2.1715e-005
		1245.12	2.1715e-005	1245.12	2.1715e-005
				1245.12	2.1715e-005
				1246.58	2.64257e-005
				1246.58	2.64257e-005
				1246.58	2.64257e-005
				1248.05	9.8331e-006
				1248.05	9.8331e-006
				1248.05	9.8331e-006
		1249.51	3.47276e-005	1249.51	1.69574e-005
		1249.51	1.69574e-005	1249.51	1.69574e-005
				1249.51	1.69574e-005
				1250.98	2.27937e-005
				1250.98	2.27937e-005
				1250.98	2.27937e-005
				1252.44	4.90126e-005
				1252.44	4.90126e-005
				1252.44	4.90126e-005
		1253.91	4.39354e-005	1253.91	1.84973e-005
		1253.91	1.84973e-005	1253.91	1.84973e-005
				1253.91	1.84973e-005
		1255.37	2.32013e-005	1255.37	1.42443e-005
		1255.37	1.42443e-005	1255.37	1.42443e-005
				1255.37	1.42443e-005
				1256.84	2.65563e-005
				1256.84	2.65563e-005
				1256.84	2.65563e-005
				1258.3	5.90222e-005
				1258.3	5.90222e-005
				1258.3	5.90222e-005
				1259.77	4.24326e-005
				1259.77	4.24326e-005
				1259.77	4.24326e-005
		1261.23	5.795e-005	1261.23	6.67706e-006
		1261.23	6.67706e-006	1261.23	6.67706e-006
				1261.23	6.67706e-006
		1262.7	7.02794e-005	1262.7	4.06391e-005
		1262.7	4.06391e-005	1262.7	4.06391e-005
				1262.7	4.06391e-005
				1264.16	1.58612e-005
				1264.16	1.58612e-005
				1264.16	1.58612e-005
				1265.63	2.53726e-005
				1265.63	2.53726e-005
				1265.63	2.53726e-005
				1267.09	1.81877e-005
				1267.09	1.81877e-005
				1267.09	1.81877e-005
				1268.55	4.29475e-005
				1268.55	4.29475e-005
				1268.55	4.29475e-005
		1270.02	4.30076e-005	1270.02	4.15404e-005
		1270.02	4.15404e-005	1270.02	4.15404e-005
				1270.02	4.15404e-005
		1271.48	4.21632e-005	1271.48	3.88392e-005
		1271.48	3.88392e-005	1271.48	3.88392e-005
				1271.48	3.88392e-005
				1272.95	4.88069e-005
				1272.95	4.88069e-005
				1272.95	4.88069e-005
				1274.41	6.17708e-005
				1274.41	6.17708e-005
				1274.41	6.17708e-005
		1275.88	2.64381e-005	1275.88	2.45713e-005
		1275.88	2.45713e-005	1275.88	2.45713e-005
				1275.88	2.45713e-005
				1277.34	4.29291e-005
				1277.34	4.29291e-005
				1277.34	4.29291e-005
				1278.81	2.18942e-005
				1278.81	2.18942e-005
				1278.81	2.18942e-005
				1280.27	3.89535e-005
				1280.27	3.89535e-005
				1280.27	3.89535e-005
		1281.74	3.10161e-005	1281.74	3.04575e-005
		1281.74	3.04575e-005	1281.74	3.04575e-005
				1281.74	3.04575e-005
				1283.2	3.87852e-005
				1283.2	3.87852e-005
				1283.2	3.87852e-005
				1284.67	2.90259e-005
				1284.67	2.90259e-005
				1284.67	2.90259e-005
				1286.13	4.12534e-005
				1286.13	4.12534e-005
				1286.13	4.12534e-005
1287.6	2.51378e-005			1287.6	1.61485e-005
1287.6	1.61485e-005			1287.6	1.61485e-005
				1287.6	1.61485e-005
		1289.06	3.75605e-005	1289.06	3.71829e-005
		1289.06	3.71829e-005	1289.06	3.71829e-005
				1289.06	3.71829e-005
		1290.53	4.10015e-005	1290.53	3.49207e-005
		1290.53	3.49207e-005	1290.53	3.49207e-005
				1290.53	3.49207e-005
		1291.99	3.80427e-005	1291.99	2.78088e-005
		1291.99	2.78088e-005	1291.99	2.78088e-005
				1291.99	2.78088e-005
				1293.46	3.98005e-005
				1293.46	3.98005e-005
				1293.46	3.98005e-005
				1294.92	3.86842e-005
				1294.92	3.86842e-005
				1294.92	3.86842e-005
		1296.39	4.74761e-005	1296.39	3.41083e-005
		1296.39	3.41083e-005	1296.39	3.41083e-005
				1296.39	3.41083e-005
		1297.85	2.89193e-005	1297.85	1.41542e-005
		1297.85	1.41542e-005	1297.85	1.41542e-005
				1297.85	1.41542e-005
				1299.32	2.31353e-005
				1299.32	2.31353e-005
				1299.32	2.31353e-005
		1300.78	5.05632e-005	1300.78	2.04026e-005
		1300.78	2.04026e-005	1300.78	2.04026e-005
				1300.78	2.04026e-005
				1302.25	4.08398e-005
				1302.25	4.08398e-005
				1302.25	4.08398e-005
				1303.71	5.04693e-005
				1303.71	5.04693e-005
				1303.71	5.04693e-005
		1305.18	3.52102e-005	1305.18	2.39635e-005
		1305.18	2.39635e-005	1305.18	2.39635e-005
				1305.18	2.39635e-005
				1306.64	3.67243e-005
				1306.64	3.67243e-005
				1306.64	3.67243e-005
				1308.11	3.09405e-005
				1308.11	3.09405e-005
				1308.11	3.09405e-005
		1309.57	5.20986e-005	1309.57	4.17166e-005
		1309.57	4.17166e-005	1309.57	4.17166e-005
				1309.57	4.17166e-005
				1311.04	3.14307e-005
				1311.04	3.14307e-005
				1311.04	3.14307e-005
				1312.5	2.9468e-005
				1312.5	2.9468e-005
				1312.5	2.9468e-005
				1313.96	5.81948e-005
				1313.96	5.81948e-005
				1313.96	5.81948e-005
				1315.43	3.15921e-005
				1315.43	3.15921e-005
				1315.43	3.15921e-005
		1316.89	4.40632e-005	1316.89	1.74995e-005
		1316.89	1.74995e-005	1316.89	1.74995e-005
				1316.89	1.74995e-005
				1318.36	2.55952e-005
				1318.36	2.55952e-005
				1318.36	2.55952e-005
				1319.82	4.11636e-005
				1319.82	4.11636e-005
				1319.82	4.11636e-005
		1321.29	4.82257e-005	1321.29	4.04088e-005
		1321.29	4.04088e-005	1321.29	4.04088e-005
				1321.29	4.04088e-005
		1322.75	3.75069e-005	1322.75	2.37235e-005
		1322.75	2.37235e-005	1322.75	2.37235e-005
				1322.75	2.37235e-005
		1324.22	3.90372e-005	1324.22	7.39248e-006
		1324.22	7.39248e-006	1324.22	7.39248e-006
				1324.22	7.39248e-006
				1325.68	3.42042e-005
				1325.68	3.42042e-005
				1325.68	3.42042e-005
				1327.15	5.74485e-005
				1327.15	5.74485e-005
				1327.15	5.74485e-005
				1328.61	2.85179e-005
				1328.61	2.85179e-005
				1328.61	2.85179e-005
		1330.08	3.387e-005	1330.08	2.34481e-005
		1330.08	2.34481e-005	1330.08	2.34481e-005
				1330.08	2.34481e-005
				1331.54	1.72658e-005
				1331.54	1.72658e-005
				1331.54	1.72658e-005
				1333.01	3.55199e-005
				1333.01	3.55199e-005
				1333.01	3.55199e-005
		1334.47	1.60375e-005	1334.47	1.3178e-005
		1334.47	1.3178e-005	1334.47	1.3178e-005
				1334.47	1.3178e-005
				1335.94	3.36116e-005
				1335.94	3.36116e-005
				1335.94	3.36116e-005
		1337.4	5.28664e-005	1337.4	1.6739e-005
		1337.4	1.6739e-005	1337.4	1.6739e-005
				1337.4	1.6739e-005
				1338.87	3.40254e-005
				1338.87	3.40254e-005
				1338.87	3.40254e-005
		1340.33	4.36625e-005	1340.33	4.16643e-005
		1340.33	4.16643e-005	1340.33	4.16643e-005
				1340.33	4.16643e-005
		1341.8	2.33542e-005	1341.8	7.10657e-006
		1341.8	7.10657e-006	1341.8	7.10657e-006
				1341.8	7.10657e-006
		1343.26	2.51677e-005	1343.26	1.24067e-005
		1343.26	1.24067e-005	1343.26	1.24067e-005
				1343.26	1.24067e-005
				1344.73	2.50955e-005
				1344.73	2.50955e-005
				1344.73	2.50955e-005
				1346.19	2.65143e-005
				1346.19	2.65143e-005
				1346.19	2.65143e-005
		1347.66	1.34877e-005	1347.66	7.87546e-006
		1347.66	7.87546e-006	1347.66	7.87546e-006
				1347.66	7.87546e-006
		1349.12	2.37762e-005	1349.12	1.7246e-006
		1349.12	1.7246e-006	1349.12	1.7246e-006
				1349.12	1.7246e-006
		1350.59	2.24365e-005	1350.59	2.01175e-005
		1350.59	2.01175e-005	1350.59	2.01175e-005
				1350.59	2.01175e-005
				1352.05	2.50343e-005
				1352.05	2.50343e-005
				1352.05	2.50343e-005
				1353.52	3.33391e-005
				1353.52	3.33391e-005
				1353.52	3.33391e-005
		1354.98	2.33298e-005	1354.98	1.72016e-005
		1354.98	1.72016e-005	1354.98	1.72016e-005
				1354.98	1.72016e-005
				1356.45	2.36026e-005
				1356.45	2.36026e-005
				1356.45	2.36026e-005
				1357.91	3.82305e-005
				1357.91	3.82305e-005
				1357.91	3.82305e-005
				1359.38	2.55848e-005
				1359.38	2.55848e-005
				1359.38	2.55848e-005
				1360.84	3.39379e-005
				1360.84	3.39379e-005
				1360.84	3.39379e-005
		1362.3	1.20383e-005	1362.3	8.01944e-006
		1362.3	8.01944e-006	1362.3	8.01944e-006
				1362.3	8.01944e-006
		1363.77	2.8342e-005	1363.77	1.10439e-005
		1363.77	1.10439e-005	1363.77	1.10439e-005
				1363.77	1.10439e-005
				1365.23	4.23445e-005
				1365.23	4.23445e-005
				1365.23	4.23445e-005
				1366.7	5.03139e-005
				1366.7	5.03139e-005
				1366.7	5.03139e-005
		1368.16	2.50845e-005	1368.16	1.95935e-005
		1368.16	1.95935e-005	1368.16	1.95935e-005
				1368.16	1.95935e-005
		1369.63	3.3329e-005	1369.63	1.56458e-005
		1369.63	1.56458e-005	1369.63	1.56458e-005
				1369.63	1.56458e-005
		1371.09	4.52023e-005	1371.09	4.23883e-005
		1371.09	4.23883e-005	1371.09	4.23883e-005
				1371.09	4.23883e-005
				1372.56	4.45486e-005
				1372.56	4.45486e-005
				1372.56	4.45486e-005
				1374.02	2.39764e-005
				1374.02	2.39764e-005
				1374.02	2.39764e-005
				1375.49	3.93305e-005
				1375.49	3.93305e-005
				1375.49	3.93305e-005
				1376.95	5.35323e-005
				1376.95	5.35323e-005
				1376.95	5.35323e-005
				1378.42	3.73052e-005
				1378.42	3.73052e-005
				1378.42	3.73052e-005
				1379.88	5.09987e-005
				1379.88	5.09987e-005
				1379.88	5.09987e-005
		1381.35	4.67763e-005	1381.35	3.54293e-005
		1381.35	3.54293e-005	1381.35	3.54293e-005
				1381.35	3.54293e-005
		1382.81	3.00168e-005	1382.81	1.74608e-005
		1382.81	1.74608e-005	1382.81	1.74608e-005
				1382.81	1.74608e-005
				1384.28	4.4735e-005
				1384.28	4.4735e-005
				1384.28	4.4735e-005
				1385.74	3.58057e-005
				1385.74	3.58057e-005
				1385.74	3.58057e-005
		1387.21	3.59586e-005	1387.21	3.42168e-005
		1387.21	3.42168e-005	1387.21	3.42168e-005
				1387.21	3.42168e-005
				1388.67	4.25356e-005
				1388.67	4.25356e-005
				1388.67	4.25356e-005
				1390.14	2.40992e-005
				1390.14	2.40992e-005
				1390.14	2.40992e-005
				1391.6	3.13749e-005
				1391.6	3.13749e-005
				1391.6	3.13749e-005
		1393.07	6.2747e-005	1393.07	2.94605e-005
		1393.07	2.94605e-005	1393.07	2.94605e-005
				1393.07	2.94605e-005
		1394.53	4.07675e-005	1394.53	3.4154e-005
		1394.53	3.4154e-005	1394.53	3.4154e-005
				1394.53	3.4154e-005
				1396	4.90628e-006
				1396	4.90628e-006
				1396	4.90628e-006
				1397.46	3.00172e-005
				1397.46	3.00172e-005
				1397.46	3.00172e-005
				1398.93	2.18057e-005
				1398.93	2.18057e-005
				1398.93	2.18057e-005
		1400.39	4.88311e-005	1400.39	3.07838e-005
		1400.39	3.07838e-005	1400.39	3.07838e-005
				1400.39	3.07838e-005
				1401.86	1.80657e-005
				1401.86	1.80657e-005
				1401.86	1.80657e-005
				1403.32	2.45489e-005
				1403.32	2.45489e-005
				1403.32	2.45489e-005
1404.79	3.01937e-005			1404.79	2.72967e-005
1404.79	2.72967e-005			1404.79	2.72967e-005
				1404.79	2.72967e-005
				1406.25	2.2336e-005
				1406.25	2.2336e-005
				1406.25	2.2336e-005
				1407.71	2.66921e-005
				1407.71	2.66921e-005
				1407.71	2.66921e-005
		1409.18	2.5288e-005	1409.18	2.28798e-005
		1409.18	2.28798e-005	1409.18	2.28798e-005
				1409.18	2.28798e-005
		1410.64	2.46728e-005	1410.64	5.37106e-006
		1410.64	5.37106e-006	1410.64	5.37106e-006
				1410.64	5.37106e-006
				1412.11	2.70245e-005
				1412.11	2.70245e-005
				1412.11	2.70245e-005
				1413.57	4.19253e-005
				1413.57	4.19253e-005
				1413.57	4.19253e-005
		1415.04	3.26138e-005	1415.04	2.47695e-005
		1415.04	2.47695e-005	1415.04	2.47695e-005
				1415.04	2.47695e-005
		1416.5	3.2069e-005	1416.5	2.54768e-005
		1416.5	2.54768e-005	1416.5	2.54768e-005
				1416.5	2.54768e-005
				1417.97	3.06344e-005
				1417.97	3.06344e-005
				1417.97	3.06344e-005
		1419.43	2.27642e-005	1419.43	4.93646e-006
		1419.43	4.93646e-006	1419.43	4.93646e-006
				1419.43	4.93646e-006
				1420.9	4.2429e-005
				1420.9	4.2429e-005
				1420.9	4.2429e-005
		1422.36	2.5124e-005	1422.36	2.13565e-005
		1422.36	2.13565e-005	1422.36	2.13565e-005
				1422.36	2.13565e-005
		1423.83	2.6271e-005	1423.83	2.07825e-005
		1423.83	2.07825e-005	1423.83	2.07825e-005
				1423.83	2.07825e-005
				1425.29	2.43196e-005
				1425.29	2.43196e-005
				1425.29	2.43196e-005
		1426.76	2.28509e-005	1426.76	1.58375e-005
		1426.76	1.58375e-005	1426.76	1.58375e-005
				1426.76	1.58375e-005
		1428.22	3.87536e-005	1428.22	2.23198e-005
		1428.22	2.23198e-005	1428.22	2.23198e-005
				1428.22	2.23198e-005
				1429.69	4.22248e-005
				1429.69	4.22248e-005
				1429.69	4.22248e-005
				1431.15	4.12938e-005
				1431.15	4.12938e-005
				1431.15	4.12938e-005
		1432.62	5.58838e-005	1432.62	2.99399e-005
		1432.62	2.99399e-005	1432.62	2.99399e-005
				1432.62	2.99399e-005
		1434.08	2.23407e-005	1434.08	1.68708e-005
		1434.08	1.68708e-005	1434.08	1.68708e-005
				1434.08	1.68708e-005
				1435.55	2.99939e-005
				1435.55	2.99939e-005
				1435.55	2.99939e-005
				1437.01	3.22464e-005
				1437.01	3.22464e-005
				1437.01	3.22464e-005
				1438.48	4.65079e-005
				1438.48	4.65079e-005
				1438.48	4.65079e-005
		1439.94	2.40901e-005	1439.94	2.85654e-006
		1439.94	2.85654e-006	1439.94	2.85654e-006
				1439.94	2.85654e-006
		1441.41	3.20577e-005	1441.41	2.7337e-005
		1441.41	2.7337e-005	1441.41	2.7337e-005
				1441.41	2.7337e-005
				1442.87	4.27233e-005
				1442.87	4.27233e-005
				1442.87	4.27233e-005
		1444.34	2.53808e-005	1444.34	2.5074e-005
		1444.34	2.5074e-005	1444.34	2.5074e-005
				1444.34	2.5074e-005
1445.8	3.06101e-005			1445.8	2.88305e-005
1445.8	2.88305e-005			1445.8	2.88305e-005
				1445.8	2.88305e-005
		1447.27	3.30948e-005	1447.27	2.38308e-005
		1447.27	2.38308e-005	1447.27	2.38308e-005
				1447.27	2.38308e-005
				1448.73	5.12269e-005
				1448.73	5.12269e-005
				1448.73	5.12269e-005
		1450.2	1.79053e-005	1450.2	9.10128e-006
		1450.2	9.10128e-006	1450.2	9.10128e-006
				1450.2	9.10128e-006
				1451.66	2.61679e-005
				1451.66	2.61679e-005
				1451.66	2.61679e-005
				1453.13	2.8103e-005
				1453.13	2.8103e-005
				1453.13	2.8103e-005
		1454.59	2.25691e-005	1454.59	2.07802e-005
		1454.59	2.07802e-005	1454.59	2.07802e-005
				1454.59	2.07802e-005
		1456.05	4.1818e-005	1456.05	2.38988e-005
		1456.05	2.38988e-005	1456.05	2.38988e-005
				1456.05	2.38988e-005
		1457.52	2.34844e-005	1457.52	1.98096e-005
		1457.52	1.98096e-005	1457.52	1.98096e-005
				1457.52	1.98096e-005
		1458.98	5.82348e-005	1458.98	2.49801e-005
		1458.98	2.49801e-005	1458.98	2.49801e-005
				1458.98	2.49801e-005
		1460.45	1.97631e-005	1460.45	1.91182e-005
		1460.45	1.91182e-005	1460.45	1.91182e-005
				1460.45	1.91182e-005
				1461.91	4.60389e-005
				1461.91	4.60389e-005
				1461.91	4.60389e-005
				1463.38	1.00828e-005
				1463.38	1.00828e-005
				1463.38	1.00828e-005
				1464.84	3.33245e-005
				1464.84	3.33245e-005
				1464.84	3.33245e-005
				1466.31	4.91423e-005
				1466.31	4.91423e-005
				1466.31	4.91423e-005
		1467.77	3.16791e-005	1467.77	3.4282e-006
		1467.77	3.4282e-006	1467.77	3.4282e-006
				1467.77	3.4282e-006
				1469.24	1.7864e-005
				1469.24	1.7864e-005
				1469.24	1.7864e-005
		1470.7	2.98468e-005	1470.7	2.7337e-005
		1470.7	2.7337e-005	1470.7	2.7337e-005
				1470.7	2.7337e-005
				1472.17	3.70655e-005
				1472.17	3.70655e-005
				1472.17	3.70655e-005
		1473.63	1.43879e-005	1473.63	1.08268e-005
		1473.63	1.08268e-005	1473.63	1.08268e-005
				1473.63	1.08268e-005
		1475.1	2.56137e-005	1475.1	2.19171e-005
		1475.1	2.19171e-005	1475.1	2.19171e-005
				1475.1	2.19171e-005
				1476.56	3.4493e-005
				1476.56	3.4493e-005
				1476.56	3.4493e-005
		1478.03	6.27162e-005	1478.03	5.48272e-005
		1478.03	5.48272e-005	1478.03	5.48272e-005
				1478.03	5.48272e-005
		1479.49	4.65789e-005	1479.49	1.92646e-005
		1479.49	1.92646e-005	1479.49	1.92646e-005
				1479.49	1.92646e-005
				1480.96	1.48303e-005
				1480.96	1.48303e-005
				1480.96	1.48303e-005
		1482.42	1.71275e-005	1482.42	3.48876e-006
		1482.42	3.48876e-006	1482.42	3.48876e-006
				1482.42	3.48876e-006
		1483.89	3.44162e-005	1483.89	9.18332e-006
		1483.89	9.18332e-006	1483.89	9.18332e-006
				1483.89	9.18332e-006
		1485.35	2.3222e-005	1485.35	8.04309e-006
		1485.35	8.04309e-006	1485.35	8.04309e-006
				1485.35	8.04309e-006
		1486.82	4.7945e-005	1486.82	1.00207e-005
		1486.82	1.00207e-005	1486.82	1.00207e-005
				1486.82	1.00207e-005
1488.28	3.02628e-005			1488.28	2.65357e-005
1488.28	2.65357e-005			1488.28	2.65357e-005
				1488.28	2.65357e-005
				1489.75	3.45571e-005
				1489.75	3.45571e-005
				1489.75	3.45571e-005
				1491.21	3.91728e-005
				1491.21	3.91728e-005
				1491.21	3.91728e-005
				1492.68	6.50976e-005
				1492.68	6.50976e-005
				1492.68	6.50976e-005
		1494.14	1.20805e-005	1494.14	1.10147e-005
		1494.14	1.10147e-005	1494.14	1.10147e-005
				1494.14	1.10147e-005
		1495.61	4.18602e-005	1495.61	9.62305e-006
		1495.61	9.62305e-006	1495.61	9.62305e-006
				1495.61	9.62305e-006
		1497.07	2.89122e-005	1497.07	2.39089e-005
		1497.07	2.39089e-005	1497.07	2.39089e-005
				1497.07	2.39089e-005
				1498.54	2.24236e-005
				1498.54	2.24236e-005
				1498.54	2.24236e-005
		1500	4.06615e-005	1500	2.74767e-005
		1500	2.74767e-005	1500	2.74767e-005
				1500	2.74767e-005
		1501.46	1.54473e-005	1501.46	1.19291e-005
		1501.46	1.19291e-005	1501.46	1.19291e-005
				1501.46	1.19291e-005
				1502.93	6.09241e-005
				1502.93	6.09241e-005
				1502.93	6.09241e-005
		1504.39	1.73894e-005	1504.39	1.14722e-005
		1504.39	1.14722e-005	1504.39	1.14722e-005
				1504.39	1.14722e-005
		1505.86	3.45739e-005	1505.86	2.99051e-005
		1505.86	2.99051e-005	1505.86	2.99051e-005
				1505.86	2.99051e-005
		1507.32	5.56084e-005	1507.32	5.10573e-005
		1507.32	5.10573e-005	1507.32	5.10573e-005
				1507.32	5.10573e-005
		1508.79	5.53267e-005	1508.79	4.24026e-005
		1508.79	4.24026e-005	1508.79	4.24026e-005
				1508.79	4.24026e-005
				1510.25	4.687e-005
				1510.25	4.687e-005
				1510.25	4.687e-005
		1511.72	6.80014e-005	1511.72	2.50075e-005
		1511.72	2.50075e-005	1511.72	2.50075e-005
				1511.72	2.50075e-005
		1513.18	5.04869e-005	1513.18	2.89657e-005
		1513.18	2.89657e-005	1513.18	2.89657e-005
				1513.18	2.89657e-005
		1514.65	6.29052e-005	1514.65	3.45519e-005
		1514.65	3.45519e-005	1514.65	3.45519e-005
				1514.65	3.45519e-005
				1516.11	3.9662e-005
				1516.11	3.9662e-005
				1516.11	3.9662e-005
				1517.58	5.44761e-005
				1517.58	5.44761e-005
				1517.58	5.44761e-005
		1519.04	3.8662e-005	1519.04	3.41017e-005
		1519.04	3.41017e-005	1519.04	3.41017e-005
				1519.04	3.41017e-005
		1520.51	2.90029e-005	1520.51	2.57051e-005
		1520.51	2.57051e-005	1520.51	2.57051e-005
				1520.51	2.57051e-005
				1521.97	4.72753e-005
				1521.97	4.72753e-005
				1521.97	4.72753e-005
				1523.44	4.57697e-005
				1523.44	4.57697e-005
				1523.44	4.57697e-005
				1524.9	9.0995e-006
				1524.9	9.0995e-006
				1524.9	9.0995e-006
		1526.37	2.67531e-005	1526.37	6.55643e-006
		1526.37	6.55643e-006	1526.37	6.55643e-006
				1526.37	6.55643e-006
				1527.83	7.25887e-006
				1527.83	7.25887e-006
				1527.83	7.25887e-006
		1529.3	1.87985e-005	1529.3	1.66302e-005
		1529.3	1.66302e-005	1529.3	1.66302e-005
				1529.3	1.66302e-005
		1530.76	3.09517e-005	1530.76	1.66296e-005
		1530.76	1.66296e-005	1530.76	1.66296e-005
				1530.76	1.66296e-005
1532.23	3.63165e-005			1532.23	1.03847e-005
1532.23	1.03847e-005			1532.23	1.03847e-005
				1532.23	1.03847e-005
		1533.69	4.65312e-005	1533.69	1.52928e-005
		1533.69	1.52928e-005	1533.69	1.52928e-005
				1533.69	1.52928e-005
		1535.16	4.02691e-005	1535.16	2.8434e-005
		1535.16	2.8434e-005	1535.16	2.8434e-005
				1535.16	2.8434e-005
				1536.62	5.99965e-005
				1536.62	5.99965e-005
				1536.62	5.99965e-005
				1538.09	2.36363e-005
				1538.09	2.36363e-005
				1538.09	2.36363e-005
		1539.55	2.34669e-005	1539.55	2.16269e-005
		1539.55	2.16269e-005	1539.55	2.16269e-005
				1539.55	2.16269e-005
		1541.02	2.46793e-005	1541.02	2.3413e-005
		1541.02	2.3413e-005	1541.02	2.3413e-005
				1541.02	2.3413e-005
				1542.48	2.51753e-005
				1542.48	2.51753e-005
				1542.48	2.51753e-005
		1543.95	2.94988e-005	1543.95	2.17939e-005
		1543.95	2.17939e-005	1543.95	2.17939e-005
				1543.95	2.17939e-005
				1545.41	4.30827e-005
				1545.41	4.30827e-005
				1545.41	4.30827e-005
		1546.88	2.22764e-005	1546.88	1.82837e-005
		1546.88	1.82837e-005	1546.88	1.82837e-005
				1546.88	1.82837e-005
		1548.34	2.81668e-005	1548.34	5.88743e-006
		1548.34	5.88743e-006	1548.34	5.88743e-006
				1548.34	5.88743e-006
		1549.8	1.15376e-005	1549.8	8.42745e-006
		1549.8	8.42745e-006	1549.8	8.42745e-006
				1549.8	8.42745e-006
		1551.27	2.80301e-005	1551.27	2.27604e-005
		1551.27	2.27604e-005	1551.27	2.27604e-005
				1551.27	2.27604e-005
		1552.73	3.74826e-005	1552.73	3.26105e-005
		1552.73	3.26105e-005	1552.73	3.26105e-005
				1552.73	3.26105e-005
		1554.2	4.63012e-005	1554.2	2.02446e-005
		1554.2	2.02446e-005	1554.2	2.02446e-005
				1554.2	2.02446e-005
				1555.66	4.36997e-005
				1555.66	4.36997e-005
				1555.66	4.36997e-005
		1557.13	3.3918e-005	1557.13	2.25831e-005
		1557.13	2.25831e-005	1557.13	2.25831e-005
				1557.13	2.25831e-005
		1558.59	3.40722e-005	1558.59	3.30444e-005
		1558.59	3.30444e-005	1558.59	3.30444e-005
				1558.59	3.30444e-005
		1560.06	3.93615e-005	1560.06	3.52097e-005
		1560.06	3.52097e-005	1560.06	3.52097e-005
				1560.06	3.52097e-005
				1561.52	2.25287e-005
				1561.52	2.25287e-005
				1561.52	2.25287e-005
		1562.99	3.21965e-005	1562.99	1.48766e-005
		1562.99	1.48766e-005	1562.99	1.48766e-005
				1562.99	1.48766e-005
		1564.45	2.29783e-005	1564.45	9.93672e-006
		1564.45	9.93672e-006	1564.45	9.93672e-006
				1564.45	9.93672e-006
		1565.92	5.11633e-005	1565.92	2.09806e-005
		1565.92	2.09806e-005	1565.92	2.09806e-005
				1565.92	2.09806e-005
				1567.38	1.89752e-005
				1567.38	1.89752e-005
				1567.38	1.89752e-005
				1568.85	1.47859e-005
				1568.85	1.47859e-005
				1568.85	1.47859e-005
		1570.31	4.4265e-005	1570.31	2.53308e-005
		1570.31	2.53308e-005	1570.31	2.53308e-005
				1570.31	2.53308e-005
				1571.78	3.61745e-005
				1571.78	3.61745e-005
				1571.78	3.61745e-005
				1573.24	3.33754e-005
				1573.24	3.33754e-005
				1573.24	3.33754e-005
		1574.71	1.4676e-005	1574.71	1.28103e-005
		1574.71	1.28103e-005	1574.71	1.28103e-005
				1574.71	1.28103e-005
				1576.17	1.48757e-005
				1576.17	1.48757e-005
				1576.17	1.48757e-005
		1577.64	1.05362e-005	1577.64	4.10675e-006
		1577.64	4.10675e-006	1577.64	4.10675e-006
				1577.64	4.10675e-006
		1579.1	2.38642e-005	1579.1	1.42344e-005
		1579.1	1.42344e-005	1579.1	1.42344e-005
				1579.1	1.42344e-005
		1580.57	4.50932e-005	1580.57	2.60394e-005
		1580.57	2.60394e-005	1580.57	2.60394e-005
				1580.57	2.60394e-005
		1582.03	2.83571e-005	1582.03	1.67188e-005
		1582.03	1.67188e-005	1582.03	1.67188e-005
				1582.03	1.67188e-005
				1583.5	4.18489e-005
				1583.5	4.18489e-005
				1583.5	4.18489e-005
		1584.96	3.98395e-005	1584.96	2.16483e-005
		1584.96	2.16483e-005	1584.96	2.16483e-005
				1584.96	2.16483e-005
		1586.43	3.94553e-005	1586.43	1.41298e-005
		1586.43	1.41298e-005	1586.43	1.41298e-005
				1586.43	1.41298e-005
				1587.89	1.57812e-005
				1587.89	1.57812e-005
				1587.89	1.57812e-005
		1589.36	3.77986e-005	1589.36	1.91601e-005
		1589.36	1.91601e-005	1589.36	1.91601e-005
				1589.36	1.91601e-005
				1590.82	1.68886e-005
				1590.82	1.68886e-005
				1590.82	1.68886e-005
		1592.29	3.01859e-005	1592.29	2.66422e-005
		1592.29	2.66422e-005	1592.29	2.66422e-005
				1592.29	2.66422e-005
		1593.75	4.25738e-005	1593.75	4.23378e-005
		1593.75	4.23378e-005	1593.75	4.23378e-005
				1593.75	4.23378e-005
		1595.21	8.02905e-006	1595.21	4.90193e-006
		1595.21	4.90193e-006	1595.21	4.90193e-006
				1595.21	4.90193e-006
				1596.68	1.6126e-005
				1596.68	1.6126e-005
				1596.68	1.6126e-005
				1598.14	3.28711e-005
				1598.14	3.28711e-005
				1598.14	3.28711e-005
				1599.61	3.66152e-005
				1599.61	3.66152e-005
				1599.61	3.66152e-005
		1601.07	1.54331e-005	1601.07	7.33875e-006
		1601.07	7.33875e-006	1601.07	7.33875e-006
				1601.07	7.33875e-006
		1602.54	4.5818e-005	1602.54	2.20846e-005
		1602.54	2.20846e-005	1602.54	2.20846e-005
				1602.54	2.20846e-005
		1604	2.28434e-005	1604	3.29864e-006
		1604	3.29864e-006	1604	3.29864e-006
				1604	3.29864e-006
				1605.47	4.58012e-005
				1605.47	4.58012e-005
				1605.47	4.58012e-005
		1606.93	3.83179e-005	1606.93	3.04878e-005
		1606.93	3.04878e-005	1606.93	3.04878e-005
				1606.93	3.04878e-005
				1608.4	2.94689e-005
				1608.4	2.94689e-005
				1608.4	2.94689e-005
		1609.86	2.51973e-005	1609.86	9.0704e-006
		1609.86	9.0704e-006	1609.86	9.0704e-006
				1609.86	9.0704e-006
				1611.33	2.93494e-005
				1611.33	2.93494e-005
				1611.33	2.93494e-005
				1612.79	4.91976e-005
				1612.79	4.91976e-005
				1612.79	4.91976e-005
				1614.26	1.862e-005
				1614.26	1.862e-005
				1614.26	1.862e-005
				1615.72	2.70914e-005
				1615.72	2.70914e-005
				1615.72	2.70914e-005
		1617.19	3.31158e-005	1617.19	1.67703e-005
		1617.19	1.67703e-005	1617.19	1.67703e-005
				1617.19	1.67703e-005
				1618.65	1.85568e-005
				1618.65	1.85568e-005
				1618.65	1.85568e-005
		1620.12	2.12536e-005	1620.12	2.86214e-006
		1620.12	2.86214e-006	1620.12	2.86214e-006
				1620.12	2.86214e-006
				1621.58	2.41851e-005
				1621.58	2.41851e-005
				1621.58	2.41851e-005
1623.05	3.5825e-005			1623.05	7.88484e-006
1623.05	7.88484e-006			1623.05	7.88484e-006
				1623.05	7.88484e-006
				1624.51	3.79629e-005
				1624.51	3.79629e-005
				1624.51	3.79629e-005
				1625.98	4.11627e-005
				1625.98	4.11627e-005
				1625.98	4.11627e-005
				1627.44	3.17969e-005
				1627.44	3.17969e-005
				1627.44	3.17969e-005
				1628.91	1.80517e-005
				1628.91	1.80517e-005
				1628.91	1.80517e-005
				1630.37	3.1505e-005
				1630.37	3.1505e-005
				1630.37	3.1505e-005
				1631.84	3.44204e-005
				1631.84	3.44204e-005
				1631.84	3.44204e-005
				1633.3	2.6652e-005
				1633.3	2.6652e-005
				1633.3	2.6652e-005
		1634.77	3.08371e-005	1634.77	1.84409e-005
		1634.77	1.84409e-005	1634.77	1.84409e-005
				1634.77	1.84409e-005
		1636.23	2.34027e-005	1636.23	1.43009e-005
		1636.23	1.43009e-005	1636.23	1.43009e-005
				1636.23	1.43009e-005
		1637.7	3.19126e-005	1637.7	2.80125e-005
		1637.7	2.80125e-005	1637.7	2.80125e-005
				1637.7	2.80125e-005
		1639.16	1.592e-005	1639.16	8.0185e-006
		1639.16	8.0185e-006	1639.16	8.0185e-006
				1639.16	8.0185e-006
		1640.63	4.84423e-005	1640.63	1.26935e-005
		1640.63	1.26935e-005	1640.63	1.26935e-005
				1640.63	1.26935e-005
				1642.09	3.22352e-005
				1642.09	3.22352e-005
				1642.09	3.22352e-005
				1643.55	3.49811e-005
				1643.55	3.49811e-005
				1643.55	3.49811e-005
				1645.02	5.37566e-005
				1645.02	5.37566e-005
				1645.02	5.37566e-005
		1646.48	2.42915e-005	1646.48	1.97195e-005
		1646.48	1.97195e-005	1646.48	1.97195e-005
				1646.48	1.97195e-005
		1647.95	3.0999e-005	1647.95	1.33835e-005
		1647.95	1.33835e-005	1647.95	1.33835e-005
				1647.95	1.33835e-005
		1649.41	2.21351e-005	1649.41	1.27801e-006
		1649.41	1.27801e-006	1649.41	1.27801e-006
				1649.41	1.27801e-006
				1650.88	1.98057e-005
				1650.88	1.98057e-005
				1650.88	1.98057e-005
		1652.34	2.44247e-005	1652.34	2.23221e-005
		1652.34	2.23221e-005	1652.34	2.23221e-005
				1652.34	2.23221e-005
				1653.81	2.101e-005
				1653.81	2.101e-005
				1653.81	2.101e-005
				1655.27	4.21674e-005
				1655.27	4.21674e-005
				1655.27	4.21674e-005
		1656.74	2.38011e-005	1656.74	1.17172e-005
		1656.74	1.17172e-005	1656.74	1.17172e-005
				1656.74	1.17172e-005
		1658.2	3.93956e-005	1658.2	3.11525e-005
		1658.2	3.11525e-005	1658.2	3.11525e-005
				1658.2	3.11525e-005
				1659.67	1.28474e-005
				1659.67	1.28474e-005
				1659.67	1.28474e-005
		1661.13	2.67995e-005	1661.13	1.10664e-005
		1661.13	1.10664e-005	1661.13	1.10664e-005
				1661.13	1.10664e-005
				1662.6	2.31712e-005
				1662.6	2.31712e-005
				1662.6	2.31712e-005
				1664.06	2.6519e-005
				1664.06	2.6519e-005
				1664.06	2.6519e-005
				1665.53	3.41221e-005
				1665.53	3.41221e-005
				1665.53	3.41221e-005
				1666.99	6.89247e-006
				1666.99	6.89247e-006
				1666.99	6.89247e-006
				1668.46	1.93304e-005
				1668.46	1.93304e-005
				1668.46	1.93304e-005
1669.92	2.62145e-005			1669.92	2.38714e-005
1669.92	2.38714e-005			1669.92	2.38714e-005
				1669.92	2.38714e-005
		1671.39	1.73649e-005	1671.39	4.23029e-006
		1671.39	4.23029e-006	1671.39	4.23029e-006
				1671.39	4.23029e-006
				1672.85	2.42341e-005
				1672.85	2.42341e-005
				1672.85	2.42341e-005
				1674.32	2.0233e-005
				1674.32	2.0233e-005
				1674.32	2.0233e-005
		1675.78	1.69151e-005	1675.78	1.26439e-005
		1675.78	1.26439e-005	1675.78	1.26439e-005
				1675.78	1.26439e-005
				1677.25	4.38357e-005
				1677.25	4.38357e-005
				1677.25	4.38357e-005
				1678.71	3.31529e-005
				1678.71	3.31529e-005
				1678.71	3.31529e-005
				1680.18	2.20218e-005
				1680.18	2.20218e-005
				1680.18	2.20218e-005
				1681.64	5.53673e-005
				1681.64	5.53673e-005
				1681.64	5.53673e-005
		1683.11	2.22662e-005	1683.11	5.55295e-006
		1683.11	5.55295e-006	1683.11	5.55295e-006
				1683.11	5.55295e-006
				1684.57	3.58371e-005
				1684.57	3.58371e-005
				1684.57	3.58371e-005
				1686.04	2.83443e-005
				1686.04	2.83443e-005
				1686.04	2.83443e-005
		1687.5	4.39745e-005	1687.5	8.06846e-006
		1687.5	8.06846e-006	1687.5	8.06846e-006
				1687.5	8.06846e-006
				1688.96	3.7996e-005
				1688.96	3.7996e-005
				1688.96	3.7996e-005
		1690.43	4.17178e-005	1690.43	5.61889e-006
		1690.43	5.61889e-006	1690.43	5.61889e-006
				1690.43	5.61889e-006
		1691.89	1.6775e-005	1691.89	1.60598e-005
		1691.89	1.60598e-005	1691.89	1.60598e-005
				1691.89	1.60598e-005
				1693.36	3.88905e-005
				1693.36	3.88905e-005
				1693.36	3.88905e-005
		1694.82	2.63505e-005	1694.82	1.78839e-005
		1694.82	1.78839e-005	1694.82	1.78839e-005
				1694.82	1.78839e-005
				1696.29	5.02212e-005
				1696.29	5.02212e-005
				1696.29	5.02212e-005
				1697.75	3.35649e-005
				1697.75	3.35649e-005
				1697.75	3.35649e-005
		1699.22	1.85671e-005	1699.22	4.12735e-006
		1699.22	4.12735e-006	1699.22	4.12735e-006
				1699.22	4.12735e-006
		1700.68	2.2039e-005	1700.68	1.94248e-005
		1700.68	1.94248e-005	1700.68	1.94248e-005
				1700.68	1.94248e-005
				1702.15	2.76504e-005
				1702.15	2.76504e-005
				1702.15	2.76504e-005
				1703.61	2.12721e-005
				1703.61	2.12721e-005
				1703.61	2.12721e-005
				1705.08	2.36976e-005
				1705.08	2.36976e-005
				1705.08	2.36976e-005
		1706.54	1.58992e-005	1706.54	1.29052e-005
		1706.54	1.29052e-005	1706.54	1.29052e-005
				1706.54	1.29052e-005
		1708.01	3.35105e-005	1708.01	2.13658e-005
		1708.01	2.13658e-005	1708.01	2.13658e-005
				1708.01	2.13658e-005
				1709.47	1.04245e-005
				1709.47	1.04245e-005
				1709.47	1.04245e-005
		1710.94	2.34901e-005	1710.94	1.31277e-005
		1710.94	1.31277e-005	1710.94	1.31277e-005
				1710.94	1.31277e-005
				1712.4	3.91413e-005
				1712.4	3.91413e-005
				1712.4	3.91413e-005
		1713.87	1.74035e-005	1713.87	1.58803e-006
		1713.87	1.58803e-006	1713.87	1.58803e-006
				1713.87	1.58803e-006
		1715.33	1.36004e-005	1715.33	1.54538e-006
		1715.33	1.54538e-006	1715.33	1.54538e-006
				1715.33	1.54538e-006
		1716.8	2.25211e-005	1716.8	1.16872e-005
		1716.8	1.16872e-005	1716.8	1.16872e-005
				1716.8	1.16872e-005
				1718.26	1.82283e-005
				1718.26	1.82283e-005
				1718.26	1.82283e-005
				1719.73	3.58551e-005
				1719.73	3.58551e-005
				1719.73	3.58551e-005
				1721.19	1.37196e-005
				1721.19	1.37196e-005
				1721.19	1.37196e-005
		1722.66	3.26708e-005	1722.66	5.82524e-006
		1722.66	5.82524e-006	1722.66	5.82524e-006
				1722.66	5.82524e-006
				1724.12	4.14915e-005
				1724.12	4.14915e-005
				1724.12	4.14915e-005
		1725.59	1.26535e-005	1725.59	6.57986e-006
		1725.59	6.57986e-006	1725.59	6.57986e-006
				1725.59	6.57986e-006
				1727.05	2.07737e-005
				1727.05	2.07737e-005
				1727.05	2.07737e-005
				1728.52	2.73596e-005
				1728.52	2.73596e-005
				1728.52	2.73596e-005
		1729.98	3.70258e-005	1729.98	1.1925e-005
		1729.98	1.1925e-005	1729.98	1.1925e-005
				1729.98	1.1925e-005
		1731.45	3.66774e-005	1731.45	1.21388e-005
		1731.45	1.21388e-005	1731.45	1.21388e-005
				1731.45	1.21388e-005
		1732.91	2.01511e-005	1732.91	9.69925e-006
		1732.91	9.69925e-006	1732.91	9.69925e-006
				1732.91	9.69925e-006
				1734.38	2.7629e-005
				1734.38	2.7629e-005
				1734.38	2.7629e-005
		1735.84	2.40417e-005	1735.84	2.24415e-005
		1735.84	2.24415e-005	1735.84	2.24415e-005
				1735.84	2.24415e-005
		1737.3	3.61452e-005	1737.3	2.51739e-006
		1737.3	2.51739e-006	1737.3	2.51739e-006
				1737.3	2.51739e-006
				1738.77	2.00386e-005
				1738.77	2.00386e-005
				1738.77	2.00386e-005
				1740.23	3.53725e-005
				1740.23	3.53725e-005
				1740.23	3.53725e-005
				1741.7	3.91295e-005
				1741.7	3.91295e-005
				1741.7	3.91295e-005
				1743.16	3.21455e-005
				1743.16	3.21455e-005
				1743.16	3.21455e-005
				1744.63	2.01163e-005
				1744.63	2.01163e-005
				1744.63	2.01163e-005
		1746.09	1.99316e-005	1746.09	2.81547e-006
		1746.09	2.81547e-006	1746.09	2.81547e-006
				1746.09	2.81547e-006
		1747.56	2.30938e-005	1747.56	1.76741e-005
		1747.56	1.76741e-005	1747.56	1.76741e-005
				1747.56	1.76741e-005
		1749.02	1.79778e-005	1749.02	1.71867e-005
		1749.02	1.71867e-005	1749.02	1.71867e-005
				1749.02	1.71867e-005
		1750.49	1.90261e-005	1750.49	1.03484e-005
		1750.49	1.03484e-005	1750.49	1.03484e-005
				1750.49	1.03484e-005
		1751.95	2.74243e-005	1751.95	1.50225e-005
		1751.95	1.50225e-005	1751.95	1.50225e-005
				1751.95	1.50225e-005
		1753.42	5.29426e-005	1753.42	2.47597e-005
		1753.42	2.47597e-005	1753.42	2.47597e-005
				1753.42	2.47597e-005
				1754.88	1.92619e-005
				1754.88	1.92619e-005
				1754.88	1.92619e-005
				1756.35	1.28072e-005
				1756.35	1.28072e-005
				1756.35	1.28072e-005
				1757.81	1.68066e-005
				1757.81	1.68066e-005
				1757.81	1.68066e-005
		1759.28	2.07967e-005	1759.28	6.41088e-006
		1759.28	6.41088e-006	1759.28	6.41088e-006
				1759.28	6.41088e-006
		1760.74	1.34702e-005	1760.74	8.5714e-006
		1760.74	8.5714e-006	1760.74	8.5714e-006
				1760.74	8.5714e-006
		1762.21	1.02438e-005	1762.21	4.65171e-006
		1762.21	4.65171e-006	1762.21	4.65171e-006
				1762.21	4.65171e-006
		1763.67	1.67896e-005	1763.67	1.19752e-005
		1763.67	1.19752e-005	1763.67	1.19752e-005
				1763.67	1.19752e-005
				1765.14	4.02549e-005
				1765.14	4.02549e-005
				1765.14	4.02549e-005
				1766.6	2.52346e-005
				1766.6	2.52346e-005
				1766.6	2.52346e-005
		1768.07	5.48236e-006	1768.07	1.90044e-006
		1768.07	1.90044e-006	1768.07	1.90044e-006
				1768.07	1.90044e-006
1769.53	3.65515e-005			1769.53	3.00731e-005
1769.53	3.00731e-005			1769.53	3.00731e-005
				1769.53	3.00731e-005
				1771	2.07523e-005
				1771	2.07523e-005
				1771	2.07523e-005
		1772.46	2.51643e-005	1772.46	1.63275e-005
		1772.46	1.63275e-005	1772.46	1.63275e-005
				1772.46	1.63275e-005
		1773.93	3.7358e-005	1773.93	2.61909e-005
		1773.93	2.61909e-005	1773.93	2.61909e-005
				1773.93	2.61909e-005
				1775.39	2.59014e-005
				1775.39	2.59014e-005
				1775.39	2.59014e-005
		1776.86	1.98019e-005	1776.86	6.75718e-006
		1776.86	6.75718e-006	1776.86	6.75718e-006
				1776.86	6.75718e-006
		1778.32	2.04133e-005	1778.32	1.55024e-005
		1778.32	1.55024e-005	1778.32	1.55024e-005
				1778.32	1.55024e-005
				1779.79	2.90885e-005
				1779.79	2.90885e-005
				1779.79	2.90885e-005
		1781.25	1.89929e-005	1781.25	1.33352e-005
		1781.25	1.33352e-005	1781.25	1.33352e-005
				1781.25	1.33352e-005
		1782.71	2.96929e-005	1782.71	1.59025e-005
		1782.71	1.59025e-005	1782.71	1.59025e-005
				1782.71	1.59025e-005
				1784.18	2.63385e-005
				1784.18	2.63385e-005
				1784.18	2.63385e-005
				1785.64	2.22744e-005
				1785.64	2.22744e-005
				1785.64	2.22744e-005
		1787.11	2.07295e-005	1787.11	1.28672e-005
		1787.11	1.28672e-005	1787.11	1.28672e-005
				1787.11	1.28672e-005
		1788.57	3.34287e-005	1788.57	2.55683e-005
		1788.57	2.55683e-005	1788.57	2.55683e-005
				1788.57	2.55683e-005
				1790.04	3.14508e-005
				1790.04	3.14508e-005
				1790.04	3.14508e-005
				1791.5	3.24152e-005
				1791.5	3.24152e-005
				1791.5	3.24152e-005
				1792.97	3.03549e-005
				1792.97	3.03549e-005
				1792.97	3.03549e-005
		1794.43	2.4804e-005	1794.43	2.26929e-005
		1794.43	2.26929e-005	1794.43	2.26929e-005
				1794.43	2.26929e-005
				1795.9	1.80508e-005
				1795.9	1.80508e-005
				1795.9	1.80508e-005
				1797.36	3.07438e-005
				1797.36	3.07438e-005
				1797.36	3.07438e-005
		1798.83	3.49953e-005	1798.83	1.01768e-005
		1798.83	1.01768e-005	1798.83	1.01768e-005
				1798.83	1.01768e-005
		1800.29	2.05118e-005	1800.29	1.39606e-005
		1800.29	1.39606e-005	1800.29	1.39606e-005
				1800.29	1.39606e-005
				1801.76	6.9162e-006
				1801.76	6.9162e-006
				1801.76	6.9162e-006
				1803.22	3.0652e-005
				1803.22	3.0652e-005
				1803.22	3.0652e-005
				1804.69	3.6386e-005
				1804.69	3.6386e-005
				1804.69	3.6386e-005
		1806.15	2.33335e-005	1806.15	1.61488e-005
		1806.15	1.61488e-005	1806.15	1.61488e-005
				1806.15	1.61488e-005
				1807.62	1.57569e-005
				1807.62	1.57569e-005
				1807.62	1.57569e-005
				1809.08	5.06385e-006
				1809.08	5.06385e-006
				1809.08	5.06385e-006
		1810.55	2.13788e-005	1810.55	9.04186e-006
		1810.55	9.04186e-006	1810.55	9.04186e-006
				1810.55	9.04186e-006
				1812.01	3.33191e-005
				1812.01	3.33191e-005
				1812.01	3.33191e-005
				1813.48	2.04757e-005
				1813.48	2.04757e-005
				1813.48	2.04757e-005
				1814.94	2.67727e-005
				1814.94	2.67727e-005
				1814.94	2.67727e-005
		1816.41	1.0396e-005	1816.41	7.34549e-006
		1816.41	7.34549e-006	1816.41	7.34549e-006
				1816.41	7.34549e-006
		1817.87	1.04259e-005	1817.87	9.84521e-006
		1817.87	9.84521e-006	1817.87	9.84521e-006
				1817.87	9.84521e-006
		1819.34	2.62833e-005	1819.34	1.77416e-005
		1819.34	1.77416e-005	1819.34	1.77416e-005
				1819.34	1.77416e-005
		1820.8	3.37067e-005	1820.8	1.31694e-005
		1820.8	1.31694e-005	1820.8	1.31694e-005
				1820.8	1.31694e-005
				1822.27	3.19901e-005
				1822.27	3.19901e-005
				1822.27	3.19901e-005
		1823.73	2.44172e-005	1823.73	1.15784e-005
		1823.73	1.15784e-005	1823.73	1.15784e-005
				1823.73	1.15784e-005
				1825.2	1.76458e-005
				1825.2	1.76458e-005
				1825.2	1.76458e-005
		1826.66	2.85897e-005	1826.66	4.72509e-006
		1826.66	4.72509e-006	1826.66	4.72509e-006
				1826.66	4.72509e-006
				1828.13	1.87408e-005
				1828.13	1.87408e-005
				1828.13	1.87408e-005
				1829.59	7.96543e-006
				1829.59	7.96543e-006
				1829.59	7.96543e-006
				1831.05	2.88546e-005
				1831.05	2.88546e-005
				1831.05	2.88546e-005
				1832.52	3.23019e-005
				1832.52	3.23019e-005
				1832.52	3.23019e-005
				1833.98	2.53765e-005
				1833.98	2.53765e-005
				1833.98	2.53765e-005
		1835.45	2.60864e-005	1835.45	2.56198e-005
		1835.45	2.56198e-005	1835.45	2.56198e-005
				1835.45	2.56198e-005
				1836.91	3.89096e-005
				1836.91	3.89096e-005
				1836.91	3.89096e-005
		1838.38	1.99541e-005	1838.38	1.20656e-005
		1838.38	1.20656e-005	1838.38	1.20656e-005
				1838.38	1.20656e-005
		1839.84	2.51861e-005	1839.84	2.37875e-005
		1839.84	2.37875e-005	1839.84	2.37875e-005
				1839.84	2.37875e-005
		1841.31	1.38505e-005	1841.31	9.52452e-006
		1841.31	9.52452e-006	1841.31	9.52452e-006
				1841.31	9.52452e-006
		1842.77	1.16193e-005	1842.77	8.81741e-006
		1842.77	8.81741e-006	1842.77	8.81741e-006
				1842.77	8.81741e-006
		1844.24	2.64968e-005	1844.24	1.37104e-005
		1844.24	1.37104e-005	1844.24	1.37104e-005
				1844.24	1.37104e-005
				1845.7	3.19646e-005
				1845.7	3.19646e-005
				1845.7	3.19646e-005
		1847.17	2.48597e-005	1847.17	1.19988e-005
		1847.17	1.19988e-005	1847.17	1.19988e-005
				1847.17	1.19988e-005
				1848.63	1.71627e-005
				1848.63	1.71627e-005
				1848.63	1.71627e-005
		1850.1	3.05339e-005	1850.1	9.1086e-006
		1850.1	9.1086e-006	1850.1	9.1086e-006
				1850.1	9.1086e-006
				1851.56	1.79471e-005
				1851.56	1.79471e-005
				1851.56	1.79471e-005
				1853.03	1.36106e-005
				1853.03	1.36106e-005
				1853.03	1.36106e-005
		1854.49	2.10682e-005	1854.49	2.08978e-005
		1854.49	2.08978e-005	1854.49	2.08978e-005
				1854.49	2.08978e-005
				1855.96	1.82285e-005
				1855.96	1.82285e-005
				1855.96	1.82285e-005
		1857.42	1.94891e-005	1857.42	7.30819e-006
		1857.42	7.30819e-006	1857.42	7.30819e-006
				1857.42	7.30819e-006
				1858.89	1.14766e-005
				1858.89	1.14766e-005
				1858.89	1.14766e-005
				1860.35	2.3052e-005
				1860.35	2.3052e-005
				1860.35	2.3052e-005
				1861.82	1.46672e-005
				1861.82	1.46672e-005
				1861.82	1.46672e-005
		1863.28	2.24408e-005	1863.28	1.87382e-005
		1863.28	1.87382e-005	1863.28	1.87382e-005
				1863.28	1.87382e-005
		1864.75	1.59135e-005	1864.75	1.52521e-005
		1864.75	1.52521e-005	1864.75	1.52521e-005
				1864.75	1.52521e-005
		1866.21	1.15696e-005	1866.21	3.40311e-006
		1866.21	3.40311e-006	1866.21	3.40311e-006
				1866.21	3.40311e-006
				1867.68	3.2444e-005
				1867.68	3.2444e-005
				1867.68	3.2444e-005
		1869.14	2.12246e-005	1869.14	1.58192e-005
		1869.14	1.58192e-005	1869.14	1.58192e-005
				1869.14	1.58192e-005
		1870.61	1.6802e-005	1870.61	5.33692e-006
		1870.61	5.33692e-006	1870.61	5.33692e-006
				1870.61	5.33692e-006
				1872.07	3.66572e-005
				1872.07	3.66572e-005
				1872.07	3.66572e-005
				1873.54	1.83538e-005
				1873.54	1.83538e-005
				1873.54	1.83538e-005
				1875	3.45369e-005
				1875	3.45369e-005
				1875	3.45369e-005
				1876.46	1.99933e-005
				1876.46	1.99933e-005
				1876.46	1.99933e-005
		1877.93	1.55335e-005	1877.93	8.84713e-006
		1877.93	8.84713e-006	1877.93	8.84713e-006
				1877.93	8.84713e-006
		1879.39	1.12509e-005	1879.39	7.79575e-006
		1879.39	7.79575e-006	1879.39	7.79575e-006
				1879.39	7.79575e-006
		1880.86	2.93903e-005	1880.86	2.12771e-005
		1880.86	2.12771e-005	1880.86	2.12771e-005
				1880.86	2.12771e-005
		1882.32	2.55259e-006	1882.32	1.25105e-006
		1882.32	1.25105e-006	1882.32	1.25105e-006
				1882.32	1.25105e-006
				1883.79	3.09276e-005
				1883.79	3.09276e-005
				1883.79	3.09276e-005
		1885.25	2.76656e-005	1885.25	1.61171e-005
		1885.25	1.61171e-005	1885.25	1.61171e-005
				1885.25	1.61171e-005
				1886.72	1.86572e-005
				1886.72	1.86572e-005
				1886.72	1.86572e-005
				1888.18	2.04092e-005
				1888.18	2.04092e-005
				1888.18	2.04092e-005
				1889.65	2.10172e-005
				1889.65	2.10172e-005
				1889.65	2.10172e-005
		1891.11	1.51071e-005	1891.11	1.49224e-005
		1891.11	1.49224e-005	1891.11	1.49224e-005
				1891.11	1.49224e-005
				1892.58	2.07097e-006
				1892.58	2.07097e-006
				1892.58	2.07097e-006
		1894.04	9.31249e-006	1894.04	5.43351e-006
		1894.04	5.43351e-006	1894.04	5.43351e-006
				1894.04	5.43351e-006
				1895.51	2.06675e-005
				1895.51	2.06675e-005
				1895.51	2.06675e-005
				1896.97	2.58196e-005
				1896.97	2.58196e-005
				1896.97	2.58196e-005
		1898.44	1.6089e-005	1898.44	7.91509e-006
		1898.44	7.91509e-006	1898.44	7.91509e-006
				1898.44	7.91509e-006
		1899.9	2.57962e-005	1899.9	6.71607e-006
		1899.9	6.71607e-006	1899.9	6.71607e-006
				1899.9	6.71607e-006
				1901.37	1.61284e-005
				1901.37	1.61284e-005
				1901.37	1.61284e-005
		1902.83	2.82357e-005	1902.83	1.4108e-005
		1902.83	1.4108e-005	1902.83	1.4108e-005
				1902.83	1.4108e-005
		1904.3	4.5756e-005	1904.3	2.2276e-005
		1904.3	2.2276e-005	1904.3	2.2276e-005
				1904.3	2.2276e-005
		1905.76	1.6468e-005	1905.76	1.15604e-005
		1905.76	1.15604e-005	1905.76	1.15604e-005
				1905.76	1.15604e-005
				1907.23	4.97782e-005
				1907.23	4.97782e-005
				1907.23	4.97782e-005
		1908.69	1.83261e-005	1908.69	7.13233e-006
		1908.69	7.13233e-006	1908.69	7.13233e-006
				1908.69	7.13233e-006
		1910.16	2.40682e-005	1910.16	1.3177e-005
		1910.16	1.3177e-005	1910.16	1.3177e-005
				1910.16	1.3177e-005
				1911.62	2.06794e-005
				1911.62	2.06794e-005
				1911.62	2.06794e-005
				1913.09	2.54828e-005
				1913.09	2.54828e-005
				1913.09	2.54828e-005
				1914.55	2.06624e-005
				1914.55	2.06624e-005
				1914.55	2.06624e-005
				1916.02	1.59272e-005
				1916.02	1.59272e-005
				1916.02	1.59272e-005
		1917.48	1.45378e-005	1917.48	1.0753e-005
		1917.48	1.0753e-005	1917.48	1.0753e-005
				1917.48	1.0753e-005
		1918.95	3.3225e-005	1918.95	8.4927e-006
		1918.95	8.4927e-006	1918.95	8.4927e-006
				1918.95	8.4927e-006
				1920.41	2.72417e-005
				1920.41	2.72417e-005
				1920.41	2.72417e-005
		1921.88	1.12348e-005	1921.88	8.18206e-006
		1921.88	8.18206e-006	1921.88	8.18206e-006
				1921.88	8.18206e-006
				1923.34	2.14134e-005
				1923.34	2.14134e-005
				1923.34	2.14134e-005
		1924.8	1.34996e-005	1924.8	6.46431e-006
		1924.8	6.46431e-006	1924.8	6.46431e-006
				1924.8	6.46431e-006
		1926.27	2.46348e-005	1926.27	1.60673e-005
		1926.27	1.60673e-005	1926.27	1.60673e-005
				1926.27	1.60673e-005
		1927.73	1.70526e-005	1927.73	7.86055e-007
		1927.73	7.86055e-007	1927.73	7.86055e-007
				1927.73	7.86055e-007
				1929.2	2.40851e-005
				1929.2	2.40851e-005
				1929.2	2.40851e-005
1930.66	2.59633e-005			1930.66	1.54686e-005
1930.66	1.54686e-005			1930.66	1.54686e-005
				1930.66	1.54686e-005
		1932.13	1.30684e-005	1932.13	7.27372e-006
		1932.13	7.27372e-006	1932.13	7.27372e-006
				1932.13	7.27372e-006
		1933.59	1.34317e-005	1933.59	4.98829e-006
		1933.59	4.98829e-006	1933.59	4.98829e-006
				1933.59	4.98829e-006
		1935.06	3.08565e-005	1935.06	7.36998e-006
		1935.06	7.36998e-006	1935.06	7.36998e-006
				1935.06	7.36998e-006
				1936.52	3.0697e-005
				1936.52	3.0697e-005
				1936.52	3.0697e-005
		1937.99	2.39418e-005	1937.99	7.48589e-006
		1937.99	7.48589e-006	1937.99	7.48589e-006
				1937.99	7.48589e-006
		1939.45	2.89287e-005	1939.45	1.49819e-005
		1939.45	1.49819e-005	1939.45	1.49819e-005
				1939.45	1.49819e-005
		1940.92	3.10703e-005	1940.92	1.97132e-005
		1940.92	1.97132e-005	1940.92	1.97132e-005
				1940.92	1.97132e-005
		1942.38	2.69149e-005	1942.38	5.26633e-006
		1942.38	5.26633e-006	1942.38	5.26633e-006
				1942.38	5.26633e-006
				1943.85	1.28474e-005
				1943.85	1.28474e-005
				1943.85	1.28474e-005
				1945.31	1.86123e-005
				1945.31	1.86123e-005
				1945.31	1.86123e-005
		1946.78	1.23733e-005	1946.78	5.51818e-006
		1946.78	5.51818e-006	1946.78	5.51818e-006
				1946.78	5.51818e-006
				1948.24	1.44425e-005
				1948.24	1.44425e-005
				1948.24	1.44425e-005
		1949.71	1.20338e-005	1949.71	6.31183e-006
		1949.71	6.31183e-006	1949.71	6.31183e-006
				1949.71	6.31183e-006
				1951.17	1.61691e-005
				1951.17	1.61691e-005
				1951.17	1.61691e-005
				1952.64	1.74833e-005
				1952.64	1.74833e-005
				1952.64	1.74833e-005
		1954.1	3.51497e-005	1954.1	3.30873e-006
		1954.1	3.30873e-006	1954.1	3.30873e-006
				1954.1	3.30873e-006
		1955.57	7.14655e-006	1955.57	3.6138e-006
		1955.57	3.6138e-006	1955.57	3.6138e-006
				1955.57	3.6138e-006
		1957.03	1.84069e-005	1957.03	1.57048e-005
		1957.03	1.57048e-005	1957.03	1.57048e-005
				1957.03	1.57048e-005
				1958.5	3.03275e-005
				1958.5	3.03275e-005
				1958.5	3.03275e-005
		1959.96	2.6846e-005	1959.96	3.34666e-006
		1959.96	3.34666e-006	1959.96	3.34666e-006
				1959.96	3.34666e-006
		1961.43	2.18322e-005	1961.43	1.14168e-005
		1961.43	1.14168e-005	1961.43	1.14168e-005
				1961.43	1.14168e-005
				1962.89	1.93824e-005
				1962.89	1.93824e-005
				1962.89	1.93824e-005
		1964.36	1.47698e-005	1964.36	2.57637e-006
		1964.36	2.57637e-006	1964.36	2.57637e-006
				1964.36	2.57637e-006
		1965.82	1.01302e-005	1965.82	5.98693e-006
		1965.82	5.98693e-006	1965.82	5.98693e-006
				1965.82	5.98693e-006
		1967.29	1.29761e-005	1967.29	1.0798e-005
		1967.29	1.0798e-005	1967.29	1.0798e-005
				1967.29	1.0798e-005
		1968.75	1.11893e-005	1968.75	2.79416e-006
		1968.75	2.79416e-006	1968.75	2.79416e-006
				1968.75	2.79416e-006
				1970.21	1.20783e-005
				1970.21	1.20783e-005
				1970.21	1.20783e-005
		1971.68	2.03586e-005	1971.68	6.84043e-006
		1971.68	6.84043e-006	1971.68	6.84043e-006
				1971.68	6.84043e-006
		1973.14	9.94001e-006	1973.14	5.8921e-006
		1973.14	5.8921e-006	1973.14	5.8921e-006
				1973.14	5.8921e-006
				1974.61	2.66259e-005
				1974.61	2.66259e-005
				1974.61	2.66259e-005
				1976.07	2.30909e-005
				1976.07	2.30909e-005
				1976.07	2.30909e-005
		1977.54	1.18772e-005	1977.54	1.04405e-006
		1977.54	1.04405e-006	1977.54	1.04405e-006
				1977.54	1.04405e-006
				1979	2.15056e-005
				1979	2.15056e-005
				1979	2.15056e-005
				1980.47	2.8922e-005
				1980.47	2.8922e-005
				1980.47	2.8922e-005
				1981.93	1.41057e-005
				1981.93	1.41057e-005
				1981.93	1.41057e-005
		1983.4	2.21217e-005	1983.4	1.40516e-005
		1983.4	1.40516e-005	1983.4	1.40516e-005
				1983.4	1.40516e-005
				1984.86	1.1608e-005
				1984.86	1.1608e-005
				1984.86	1.1608e-005
1986.33	2.35396e-005			1986.33	1.12832e-005
1986.33	1.12832e-005			1986.33	1.12832e-005
				1986.33	1.12832e-005
		1987.79	2.91944e-005	1987.79	2.0011e-005
		1987.79	2.0011e-005	1987.79	2.0011e-005
				1987.79	2.0011e-005
				1989.26	1.38898e-005
				1989.26	1.38898e-005
				1989.26	1.38898e-005
		1990.72	1.02684e-005	1990.72	5.50566e-006
		1990.72	5.50566e-006	1990.72	5.50566e-006
				1990.72	5.50566e-006
				1992.19	1.67466e-005
				1992.19	1.67466e-005
				1992.19	1.67466e-005
		1993.65	1.17961e-005	1993.65	5.66412e-006
		1993.65	5.66412e-006	1993.65	5.66412e-006
				1993.65	5.66412e-006
				1995.12	1.90327e-005
				1995.12	1.90327e-005
				1995.12	1.90327e-005
				1996.58	1.41775e-005
				1996.58	1.41775e-005
				1996.58	1.41775e-005
		1998.05	4.26965e-005	1998.05	1.49365e-005
		1998.05	1.49365e-005	1998.05	1.49365e-005
				1998.05	1.49365e-005
				1999.51	3.92697e-005
				1999.51	3.92697e-005
				1999.51	3.92697e-005
		2000.98	1.32587e-005	2000.98	7.3359e-006
		2000.98	7.3359e-006	2000.98	7.3359e-006
				2000.98	7.3359e-006
		2002.44	3.63602e-005	2002.44	1.40217e-005
		2002.44	1.40217e-005	2002.44	1.40217e-005
				2002.44	1.40217e-005
				2003.91	1.76799e-005
				2003.91	1.76799e-005
				2003.91	1.76799e-005
				2005.37	1.48446e-005
				2005.37	1.48446e-005
				2005.37	1.48446e-005
				2006.84	1.43598e-005
				2006.84	1.43598e-005
				2006.84	1.43598e-005
		2008.3	1.64951e-005	2008.3	6.04528e-006
		2008.3	6.04528e-006	2008.3	6.04528e-006
				2008.3	6.04528e-006
		2009.77	2.53462e-005	2009.77	1.17919e-005
		2009.77	1.17919e-005	2009.77	1.17919e-005
				2009.77	1.17919e-005
		2011.23	7.66664e-006	2011.23	7.49771e-006
		2011.23	7.49771e-006	2011.23	7.49771e-006
				2011.23	7.49771e-006
		2012.7	1.84606e-005	2012.7	1.40441e-005
		2012.7	1.40441e-005	2012.7	1.40441e-005
				2012.7	1.40441e-005
		2014.16	2.15356e-005	2014.16	1.72451e-005
		2014.16	1.72451e-005	2014.16	1.72451e-005
				2014.16	1.72451e-005
		2015.63	2.01534e-005	2015.63	1.71175e-005
		2015.63	1.71175e-005	2015.63	1.71175e-005
				2015.63	1.71175e-005
				2017.09	2.63342e-005
				2017.09	2.63342e-005
				2017.09	2.63342e-005
				2018.55	3.52359e-005
				2018.55	3.52359e-005
				2018.55	3.52359e-005
				2020.02	1.74731e-005
				2020.02	1.74731e-005
				2020.02	1.74731e-005
				2021.48	1.22973e-005
				2021.48	1.22973e-005
				2021.48	1.22973e-005
		2022.95	1.6868e-005	2022.95	9.84341e-006
		2022.95	9.84341e-006	2022.95	9.84341e-006
				2022.95	9.84341e-006
				2024.41	1.5505e-005
				2024.41	1.5505e-005
				2024.41	1.5505e-005
		2025.88	2.6e-005	2025.88	1.87496e-005
		2025.88	1.87496e-005	2025.88	1.87496e-005
				2025.88	1.87496e-005
				2027.34	1.93195e-005
				2027.34	1.93195e-005
				2027.34	1.93195e-005
		2028.81	1.49206e-005	2028.81	5.11203e-006
		2028.81	5.11203e-006	2028.81	5.11203e-006
				2028.81	5.11203e-006
				2030.27	1.90647e-005
				2030.27	1.90647e-005
				2030.27	1.90647e-005
				2031.74	2.15399e-005
				2031.74	2.15399e-005
				2031.74	2.15399e-005
				2033.2	2.6753e-005
				2033.2	2.6753e-005
				2033.2	2.6753e-005
		2034.67	1.79074e-005	2034.67	1.42736e-005
		2034.67	1.42736e-005	2034.67	1.42736e-005
				2034.67	1.42736e-005
		2036.13	2.48413e-005	2036.13	9.02757e-006
		2036.13	9.02757e-006	2036.13	9.02757e-006
				2036.13	9.02757e-006
		2037.6	2.47414e-005	2037.6	2.2576e-005
		2037.6	2.2576e-005	2037.6	2.2576e-005
				2037.6	2.2576e-005
		2039.06	1.46459e-005	2039.06	1.09853e-005
		2039.06	1.09853e-005	2039.06	1.09853e-005
				2039.06	1.09853e-005
				2040.53	2.13977e-005
				2040.53	2.13977e-005
				2040.53	2.13977e-005
				2041.99	3.02553e-005
				2041.99	3.02553e-005
				2041.99	3.02553e-005
				2043.46	2.29773e-005
				2043.46	2.29773e-005
				2043.46	2.29773e-005
2044.92	2.06073e-005			2044.92	1.77679e-005
2044.92	1.77679e-005			2044.92	1.77679e-005
				2044.92	1.77679e-005
		2046.39	1.33561e-005	2046.39	1.13628e-005
		2046.39	1.13628e-005	2046.39	1.13628e-005
				2046.39	1.13628e-005
		2047.85	2.47462e-005	2047.85	1.01823e-005
		2047.85	1.01823e-005	2047.85	1.01823e-005
				2047.85	1.01823e-005
		2049.32	2.12949e-005	2049.32	9.79301e-006
		2049.32	9.79301e-006	2049.32	9.79301e-006
				2049.32	9.79301e-006
				2050.78	1.26765e-005
				2050.78	1.26765e-005
				2050.78	1.26765e-005
		2052.25	7.33245e-006	2052.25	5.3978e-006
		2052.25	5.3978e-006	2052.25	5.3978e-006
				2052.25	5.3978e-006
				2053.71	3.24913e-005
				2053.71	3.24913e-005
				2053.71	3.24913e-005
		2055.18	2.33995e-005	2055.18	1.38108e-005
		2055.18	1.38108e-005	2055.18	1.38108e-005
				2055.18	1.38108e-005
		2056.64	2.2244e-005	2056.64	1.9328e-005
		2056.64	1.9328e-005	2056.64	1.9328e-005
				2056.64	1.9328e-005
		2058.11	2.25197e-005	2058.11	1.6723e-005
		2058.11	1.6723e-005	2058.11	1.6723e-005
				2058.11	1.6723e-005
				2059.57	1.37571e-005
				2059.57	1.37571e-005
				2059.57	1.37571e-005
		2061.04	1.03977e-005	2061.04	5.07996e-006
		2061.04	5.07996e-006	2061.04	5.07996e-006
				2061.04	5.07996e-006
				2062.5	3.20887e-005
				2062.5	3.20887e-005
				2062.5	3.20887e-005
		2063.96	1.76248e-005	2063.96	6.12332e-006
		2063.96	6.12332e-006	2063.96	6.12332e-006
				2063.96	6.12332e-006
		2065.43	1.724e-005	2065.43	1.33231e-005
		2065.43	1.33231e-005	2065.43	1.33231e-005
				2065.43	1.33231e-005
				2066.89	3.37445e-005
				2066.89	3.37445e-005
				2066.89	3.37445e-005
		2068.36	1.74396e-005	2068.36	1.58979e-006
		2068.36	1.58979e-006	2068.36	1.58979e-006
				2068.36	1.58979e-006
		2069.82	1.47823e-005	2069.82	2.15957e-006
		2069.82	2.15957e-006	2069.82	2.15957e-006
				2069.82	2.15957e-006
				2071.29	2.18066e-005
				2071.29	2.18066e-005
				2071.29	2.18066e-005
				2072.75	1.89354e-005
				2072.75	1.89354e-005
				2072.75	1.89354e-005
		2074.22	1.57566e-005	2074.22	1.16975e-005
		2074.22	1.16975e-005	2074.22	1.16975e-005
				2074.22	1.16975e-005
				2075.68	1.34641e-005
				2075.68	1.34641e-005
				2075.68	1.34641e-005
		2077.15	3.126e-005	2077.15	1.69456e-005
		2077.15	1.69456e-005	2077.15	1.69456e-005
				2077.15	1.69456e-005
				2078.61	1.36696e-005
				2078.61	1.36696e-005
				2078.61	1.36696e-005
		2080.08	1.65634e-005	2080.08	1.29225e-005
		2080.08	1.29225e-005	2080.08	1.29225e-005
				2080.08	1.29225e-005
		2081.54	9.77144e-006	2081.54	3.79494e-006
		2081.54	3.79494e-006	2081.54	3.79494e-006
				2081.54	3.79494e-006
		2083.01	2.00341e-005	2083.01	1.98827e-005
		2083.01	1.98827e-005	2083.01	1.98827e-005
				2083.01	1.98827e-005
		2084.47	7.07845e-006	2084.47	6.33454e-006
		2084.47	6.33454e-006	2084.47	6.33454e-006
				2084.47	6.33454e-006
		2085.94	3.15506e-005	2085.94	2.44636e-005
		2085.94	2.44636e-005	2085.94	2.44636e-005
				2085.94	2.44636e-005
				2087.4	1.94728e-005
				2087.4	1.94728e-005
				2087.4	1.94728e-005
				2088.87	2.24655e-005
				2088.87	2.24655e-005
				2088.87	2.24655e-005
		2090.33	8.87553e-006	2090.33	3.15186e-006
		2090.33	3.15186e-006	2090.33	3.15186e-006
				2090.33	3.15186e-006
		2091.8	1.2204e-005	2091.8	1.21306e-005
		2091.8	1.21306e-005	2091.8	1.21306e-005
				2091.8	1.21306e-005
		2093.26	1.19994e-005	2093.26	7.06405e-006
		2093.26	7.06405e-006	2093.26	7.06405e-006
				2093.26	7.06405e-006
				2094.73	3.27699e-005
				2094.73	3.27699e-005
				2094.73	3.27699e-005
		2096.19	1.61477e-005	2096.19	8.73492e-006
		2096.19	8.73492e-006	2096.19	8.73492e-006
				2096.19	8.73492e-006
				2097.66	1.86992e-005
				2097.66	1.86992e-005
				2097.66	1.86992e-005
		2099.12	1.56116e-005	2099.12	1.55396e-006
		2099.12	1.55396e-006	2099.12	1.55396e-006
				2099.12	1.55396e-006
				2100.59	1.38732e-005
				2100.59	1.38732e-005
				2100.59	1.38732e-005
		2102.05	1.28065e-005	2102.05	7.0176e-006
		2102.05	7.0176e-006	2102.05	7.0176e-006
				2102.05	7.0176e-006
		2103.52	2.00888e-005	2103.52	1.33449e-005
		2103.52	1.33449e-005	2103.52	1.33449e-005
				2103.52	1.33449e-005
		2104.98	1.5331e-005	2104.98	1.23052e-005
		2104.98	1.23052e-005	2104.98	1.23052e-005
				2104.98	1.23052e-005
				2106.45	2.25866e-005
				2106.45	2.25866e-005
				2106.45	2.25866e-005
		2107.91	2.07145e-005	2107.91	1.30614e-005
		2107.91	1.30614e-005	2107.91	1.30614e-005
				2107.91	1.30614e-005
				2109.38	1.86486e-005
				2109.38	1.86486e-005
				2109.38	1.86486e-005
		2110.84	2.38908e-005	2110.84	2.07901e-005
		2110.84	2.07901e-005	2110.84	2.07901e-005
				2110.84	2.07901e-005
		2112.3	1.87906e-005	2112.3	5.24341e-006
		2112.3	5.24341e-006	2112.3	5.24341e-006
				2112.3	5.24341e-006
				2113.77	1.96784e-005
				2113.77	1.96784e-005
				2113.77	1.96784e-005
		2115.23	1.64507e-005	2115.23	1.35513e-005
		2115.23	1.35513e-005	2115.23	1.35513e-005
				2115.23	1.35513e-005
				2116.7	2.90236e-005
				2116.7	2.90236e-005
				2116.7	2.90236e-005
				2118.16	2.02547e-005
				2118.16	2.02547e-005
				2118.16	2.02547e-005
		2119.63	9.77236e-006	2119.63	8.29041e-006
		2119.63	8.29041e-006	2119.63	8.29041e-006
				2119.63	8.29041e-006
		2121.09	1.18374e-005	2121.09	8.43067e-006
		2121.09	8.43067e-006	2121.09	8.43067e-006
				2121.09	8.43067e-006
				2122.56	1.46748e-005
				2122.56	1.46748e-005
				2122.56	1.46748e-005
				2124.02	8.16346e-006
				2124.02	8.16346e-006
				2124.02	8.16346e-006
				2125.49	2.1567e-005
				2125.49	2.1567e-005
				2125.49	2.1567e-005
				2126.95	1.60848e-005
				2126.95	1.60848e-005
				2126.95	1.60848e-005
				2128.42	1.10611e-005
				2128.42	1.10611e-005
				2128.42	1.10611e-005
				2129.88	1.18795e-005
				2129.88	1.18795e-005
				2129.88	1.18795e-005
		2131.35	2.14188e-005	2131.35	1.16453e-005
		2131.35	1.16453e-005	2131.35	1.16453e-005
				2131.35	1.16453e-005
				2132.81	1.20713e-005
				2132.81	1.20713e-005
				2132.81	1.20713e-005
				2134.28	2.36829e-005
				2134.28	2.36829e-005
				2134.28	2.36829e-005
		2135.74	1.24547e-005	2135.74	3.2764e-006
		2135.74	3.2764e-006	2135.74	3.2764e-006
				2135.74	3.2764e-006
				2137.21	1.00132e-005
				2137.21	1.00132e-005
				2137.21	1.00132e-005
		2138.67	1.46157e-005	2138.67	7.19009e-006
		2138.67	7.19009e-006	2138.67	7.19009e-006
				2138.67	7.19009e-006
		2140.14	1.83175e-005	2140.14	7.95998e-006
		2140.14	7.95998e-006	2140.14	7.95998e-006
				2140.14	7.95998e-006
				2141.6	2.35104e-005
				2141.6	2.35104e-005
				2141.6	2.35104e-005
		2143.07	2.43675e-005	2143.07	6.80187e-006
		2143.07	6.80187e-006	2143.07	6.80187e-006
				2143.07	6.80187e-006
				2144.53	1.91724e-005
				2144.53	1.91724e-005
				2144.53	1.91724e-005
		2146	1.43133e-005	2146	4.62986e-006
		2146	4.62986e-006	2146	4.62986e-006
				2146	4.62986e-006
				2147.46	1.74768e-005
				2147.46	1.74768e-005
				2147.46	1.74768e-005
		2148.93	1.70542e-005	2148.93	1.38639e-005
		2148.93	1.38639e-005	2148.93	1.38639e-005
				2148.93	1.38639e-005
		2150.39	1.83129e-005	2150.39	9.55228e-006
		2150.39	9.55228e-006	2150.39	9.55228e-006
				2150.39	9.55228e-006
				2151.86	1.11455e-005
				2151.86	1.11455e-005
				2151.86	1.11455e-005
				2153.32	1.75495e-005
				2153.32	1.75495e-005
				2153.32	1.75495e-005
		2154.79	2.33517e-005	2154.79	1.85572e-005
		2154.79	1.85572e-005	2154.79	1.85572e-005
				2154.79	1.85572e-005
		2156.25	1.21144e-005	2156.25	6.64009e-006
		2156.25	6.64009e-006	2156.25	6.64009e-006
				2156.25	6.64009e-006
				2157.71	1.9626e-005
				2157.71	1.9626e-005
				2157.71	1.9626e-005
				2159.18	1.35214e-005
				2159.18	1.35214e-005
				2159.18	1.35214e-005
				2160.64	8.45957e-006
				2160.64	8.45957e-006
				2160.64	8.45957e-006
		2162.11	1.29907e-005	2162.11	5.08208e-006
		2162.11	5.08208e-006	2162.11	5.08208e-006
				2162.11	5.08208e-006
				2163.57	2.03539e-005
				2163.57	2.03539e-005
				2163.57	2.03539e-005
		2165.04	1.05382e-005	2165.04	3.50084e-006
		2165.04	3.50084e-006	2165.04	3.50084e-006
				2165.04	3.50084e-006
				2166.5	1.42141e-005
				2166.5	1.42141e-005
				2166.5	1.42141e-005
				2167.97	1.98448e-005
				2167.97	1.98448e-005
				2167.97	1.98448e-005
		2169.43	9.47553e-006	2169.43	3.70253e-006
		2169.43	3.70253e-006	2169.43	3.70253e-006
				2169.43	3.70253e-006
		2170.9	2.65682e-005	2170.9	1.66919e-005
		2170.9	1.66919e-005	2170.9	1.66919e-005
				2170.9	1.66919e-005
		2172.36	1.39606e-005	2172.36	1.20829e-005
		2172.36	1.20829e-005	2172.36	1.20829e-005
				2172.36	1.20829e-005
				2173.83	2.37615e-005
				2173.83	2.37615e-005
				2173.83	2.37615e-005
		2175.29	2.15572e-005	2175.29	1.01935e-005
		2175.29	1.01935e-005	2175.29	1.01935e-005
				2175.29	1.01935e-005
				2176.76	1.97902e-005
				2176.76	1.97902e-005
				2176.76	1.97902e-005
				2178.22	2.66433e-005
				2178.22	2.66433e-005
				2178.22	2.66433e-005
				2179.69	1.60151e-005
				2179.69	1.60151e-005
				2179.69	1.60151e-005
				2181.15	1.01446e-005
				2181.15	1.01446e-005
				2181.15	1.01446e-005
				2182.62	1.12855e-005
				2182.62	1.12855e-005
				2182.62	1.12855e-005
				2184.08	1.15198e-005
				2184.08	1.15198e-005
				2184.08	1.15198e-005
				2185.55	1.15064e-005
				2185.55	1.15064e-005
				2185.55	1.15064e-005
				2187.01	2.58037e-005
				2187.01	2.58037e-005
				2187.01	2.58037e-005
		2188.48	2.0182e-005	2188.48	1.68424e-005
		2188.48	1.68424e-005	2188.48	1.68424e-005
				2188.48	1.68424e-005
				2189.94	1.92678e-005
				2189.94	1.92678e-005
				2189.94	1.92678e-005
				2191.41	1.98663e-005
				2191.41	1.98663e-005
				2191.41	1.98663e-005
				2192.87	2.54039e-005
				2192.87	2.54039e-005
				2192.87	2.54039e-005
				2194.34	2.0681e-005
				2194.34	2.0681e-005
				2194.34	2.0681e-005
		2195.8	1.39624e-005	2195.8	5.12903e-006
		2195.8	5.12903e-006	2195.8	5.12903e-006
				2195.8	5.12903e-006
		2197.27	1.12469e-005	2197.27	7.51119e-006
		2197.27	7.51119e-006	2197.27	7.51119e-006
				2197.27	7.51119e-006
		2198.73	2.43483e-005	2198.73	3.92902e-006
		2198.73	3.92902e-006	2198.73	3.92902e-006
				2198.73	3.92902e-006
				2200.2	2.95595e-005
				2200.2	2.95595e-005
				2200.2	2.95595e-005
				2201.66	6.94088e-006
				2201.66	6.94088e-006
				2201.66	6.94088e-006
		2203.13	8.50015e-006	2203.13	5.33237e-006
		2203.13	5.33237e-006	2203.13	5.33237e-006
				2203.13	5.33237e-006
				2204.59	1.44784e-005
				2204.59	1.44784e-005
				2204.59	1.44784e-005
		2206.05	1.32491e-005	2206.05	1.20664e-005
		2206.05	1.20664e-005	2206.05	1.20664e-005
				2206.05	1.20664e-005
		2207.52	5.20551e-006	2207.52	5.36333e-007
		2207.52	5.36333e-007	2207.52	5.36333e-007
				2207.52	5.36333e-007
		2208.98	1.9745e-005	2208.98	1.66664e-005
		2208.98	1.66664e-005	2208.98	1.66664e-005
				2208.98	1.66664e-005
				2210.45	1.99847e-005
				2210.45	1.99847e-005
				2210.45	1.99847e-005
				2211.91	1.59464e-005
				2211.91	1.59464e-005
				2211.91	1.59464e-005
		2213.38	2.67291e-005	2213.38	7.60138e-006
		2213.38	7.60138e-006	2213.38	7.60138e-006
				2213.38	7.60138e-006
		2214.84	4.71611e-006	2214.84	2.21358e-006
		2214.84	2.21358e-006	2214.84	2.21358e-006
				2214.84	2.21358e-006
		2216.31	1.6874e-005	2216.31	9.98132e-006
		2216.31	9.98132e-006	2216.31	9.98132e-006
				2216.31	9.98132e-006
		2217.77	3.08002e-005	2217.77	1.60221e-005
		2217.77	1.60221e-005	2217.77	1.60221e-005
				2217.77	1.60221e-005
		2219.24	1.90779e-005	2219.24	3.75127e-006
		2219.24	3.75127e-006	2219.24	3.75127e-006
				2219.24	3.75127e-006
				2220.7	1.58703e-005
				2220.7	1.58703e-005
				2220.7	1.58703e-005
		2222.17	1.46655e-005	2222.17	5.37042e-006
		2222.17	5.37042e-006	2222.17	5.37042e-006
				2222.17	5.37042e-006
		2223.63	1.48416e-005	2223.63	8.6245e-006
		2223.63	8.6245e-006	2223.63	8.6245e-006
				2223.63	8.6245e-006
		2225.1	3.08217e-005	2225.1	4.49159e-006
		2225.1	4.49159e-006	2225.1	4.49159e-006
				2225.1	4.49159e-006
		2226.56	1.18473e-005	2226.56	1.05398e-005
		2226.56	1.05398e-005	2226.56	1.05398e-005
				2226.56	1.05398e-005
		2228.03	1.3984e-005	2228.03	9.10277e-006
		2228.03	9.10277e-006	2228.03	9.10277e-006
				2228.03	9.10277e-006
				2229.49	1.83442e-005
				2229.49	1.83442e-005
				2229.49	1.83442e-005
				2230.96	7.55586e-006
				2230.96	7.55586e-006
				2230.96	7.55586e-006
		2232.42	1.43736e-005	2232.42	3.83826e-006
		2232.42	3.83826e-006	2232.42	3.83826e-006
				2232.42	3.83826e-006
				2233.89	1.24472e-005
				2233.89	1.24472e-005
				2233.89	1.24472e-005
		2235.35	1.80771e-005	2235.35	1.3248e-005
		2235.35	1.3248e-005	2235.35	1.3248e-005
				2235.35	1.3248e-005
				2236.82	1.30292e-005
				2236.82	1.30292e-005
				2236.82	1.30292e-005
		2238.28	1.99593e-005	2238.28	5.4289e-006
		2238.28	5.4289e-006	2238.28	5.4289e-006
				2238.28	5.4289e-006
				2239.75	1.2278e-005
				2239.75	1.2278e-005
				2239.75	1.2278e-005
		2241.21	6.30706e-006	2241.21	4.80992e-006
		2241.21	4.80992e-006	2241.21	4.80992e-006
				2241.21	4.80992e-006
				2242.68	1.61465e-005
				2242.68	1.61465e-005
				2242.68	1.61465e-005
				2244.14	6.77161e-006
				2244.14	6.77161e-006
				2244.14	6.77161e-006
		2245.61	1.75684e-005	2245.61	4.98488e-006
		2245.61	4.98488e-006	2245.61	4.98488e-006
				2245.61	4.98488e-006
				2247.07	1.52873e-005
				2247.07	1.52873e-005
				2247.07	1.52873e-005
		2248.54	1.78081e-005	2248.54	1.0776e-005
		2248.54	1.0776e-005	2248.54	1.0776e-005
				2248.54	1.0776e-005
		2250	1.95275e-005	2250	9.44755e-006
		2250	9.44755e-006	2250	9.44755e-006
				2250	9.44755e-006
		2251.46	1.57261e-005	2251.46	6.16908e-006
		2251.46	6.16908e-006	2251.46	6.16908e-006
				2251.46	6.16908e-006
		2252.93	1.6175e-005	2252.93	1.54733e-005
		2252.93	1.54733e-005	2252.93	1.54733e-005
				2252.93	1.54733e-005
		2254.39	1.38355e-005	2254.39	4.63429e-006
		2254.39	4.63429e-006	2254.39	4.63429e-006
				2254.39	4.63429e-006
				2255.86	1.56343e-005
				2255.86	1.56343e-005
				2255.86	1.56343e-005
				2257.32	9.05894e-006
				2257.32	9.05894e-006
				2257.32	9.05894e-006
				2258.79	2.72264e-005
				2258.79	2.72264e-005
				2258.79	2.72264e-005
				2260.25	1.305e-005
				2260.25	1.305e-005
				2260.25	1.305e-005
		2261.72	1.18078e-005	2261.72	1.00026e-005
		2261.72	1.00026e-005	2261.72	1.00026e-005
				2261.72	1.00026e-005
		2263.18	1.63137e-005	2263.18	1.50582e-005
		2263.18	1.50582e-005	2263.18	1.50582e-005
				2263.18	1.50582e-005
				2264.65	1.66531e-005
				2264.65	1.66531e-005
				2264.65	1.66531e-005
				2266.11	1.02617e-005
				2266.11	1.02617e-005
				2266.11	1.02617e-005
				2267.58	1.10183e-005
				2267.58	1.10183e-005
				2267.58	1.10183e-005
				2269.04	2.73333e-005
				2269.04	2.73333e-005
				2269.04	2.73333e-005
		2270.51	2.39146e-005	2270.51	1.81595e-006
		2270.51	1.81595e-006	2270.51	1.81595e-006
				2270.51	1.81595e-006
				2271.97	1.88729e-005
				2271.97	1.88729e-005
				2271.97	1.88729e-005
		2273.44	1.13504e-005	2273.44	6.23498e-006
		2273.44	6.23498e-006	2273.44	6.23498e-006
				2273.44	6.23498e-006
		2274.9	2.95813e-005	2274.9	4.8612e-006
		2274.9	4.8612e-006	2274.9	4.8612e-006
				2274.9	4.8612e-006
		2276.37	8.76661e-006	2276.37	8.50971e-006
		2276.37	8.50971e-006	2276.37	8.50971e-006
				2276.37	8.50971e-006
				2277.83	2.82896e-005
				2277.83	2.82896e-005
				2277.83	2.82896e-005
				2279.3	1.54165e-005
				2279.3	1.54165e-005
				2279.3	1.54165e-005
				2280.76	1.06203e-005
				2280.76	1.06203e-005
				2280.76	1.06203e-005
				2282.23	2.65155e-005
				2282.23	2.65155e-005
				2282.23	2.65155e-005
		2283.69	6.53489e-006	2283.69	6.29003e-006
		2283.69	6.29003e-006	2283.69	6.29003e-006
				2283.69	6.29003e-006
				2285.16	1.88786e-005
				2285.16	1.88786e-005
				2285.16	1.88786e-005
		2286.62	1.54999e-005	2286.62	4.68546e-006
		2286.62	4.68546e-006	2286.62	4.68546e-006
				2286.62	4.68546e-006
				2288.09	2.35591e-005
				2288.09	2.35591e-005
				2288.09	2.35591e-005
				2289.55	1.62571e-005
				2289.55	1.62571e-005
				2289.55	1.62571e-005
		2291.02	1.12945e-005	2291.02	5.46466e-006
		2291.02	5.46466e-006	2291.02	5.46466e-006
				2291.02	5.46466e-006
				2292.48	9.03724e-006
				2292.48	9.03724e-006
				2292.48	9.03724e-006
		2293.95	1.14626e-005	2293.95	7.16812e-006
		2293.95	7.16812e-006	2293.95	7.16812e-006
				2293.95	7.16812e-006
				2295.41	1.11003e-005
				2295.41	1.11003e-005
				2295.41	1.11003e-005
				2296.88	2.10607e-005
				2296.88	2.10607e-005
				2296.88	2.10607e-005
		2298.34	1.52041e-005	2298.34	1.21215e-005
		2298.34	1.21215e-005	2298.34	1.21215e-005
				2298.34	1.21215e-005
		2299.8	1.44164e-005	2299.8	1.3208e-005
		2299.8	1.3208e-005	2299.8	1.3208e-005
				2299.8	1.3208e-005
				2301.27	7.77425e-006
				2301.27	7.77425e-006
				2301.27	7.77425e-006
				2302.73	7.44771e-006
				2302.73	7.44771e-006
				2302.73	7.44771e-006
				2304.2	1.55498e-005
				2304.2	1.55498e-005
				2304.2	1.55498e-005
				2305.66	1.06812e-005
				2305.66	1.06812e-005
				2305.66	1.06812e-005
		2307.13	2.16218e-005	2307.13	2.01377e-005
		2307.13	2.01377e-005	2307.13	2.01377e-005
				2307.13	2.01377e-005
		2308.59	3.02985e-005	2308.59	2.75467e-005
		2308.59	2.75467e-005	2308.59	2.75467e-005
				2308.59	2.75467e-005
				2310.06	4.31098e-006
				2310.06	4.31098e-006
				2310.06	4.31098e-006
		2311.52	2.73018e-005	2311.52	5.3261e-006
		2311.52	5.3261e-006	2311.52	5.3261e-006
				2311.52	5.3261e-006
		2312.99	1.55698e-005	2312.99	5.34284e-006
		2312.99	5.34284e-006	2312.99	5.34284e-006
				2312.99	5.34284e-006
				2314.45	1.38089e-005
				2314.45	1.38089e-005
				2314.45	1.38089e-005
				2315.92	1.87285e-005
				2315.92	1.87285e-005
				2315.92	1.87285e-005
		2317.38	1.08606e-005	2317.38	9.28631e-006
		2317.38	9.28631e-006	2317.38	9.28631e-006
				2317.38	9.28631e-006
		2318.85	1.42214e-005	2318.85	3.21174e-006
		2318.85	3.21174e-006	2318.85	3.21174e-006
				2318.85	3.21174e-006
				2320.31	7.94659e-006
				2320.31	7.94659e-006
				2320.31	7.94659e-006
				2321.78	2.37674e-005
				2321.78	2.37674e-005
				2321.78	2.37674e-005
		2323.24	2.28424e-005	2323.24	4.56769e-006
		2323.24	4.56769e-006	2323.24	4.56769e-006
				2323.24	4.56769e-006
		2324.71	2.28495e-005	2324.71	1.33752e-005
		2324.71	1.33752e-005	2324.71	1.33752e-005
				2324.71	1.33752e-005
		2326.17	1.05491e-005	2326.17	5.14788e-006
		2326.17	5.14788e-006	2326.17	5.14788e-006
				2326.17	5.14788e-006
		2327.64	1.36046e-005	2327.64	4.4088e-006
		2327.64	4.4088e-006	2327.64	4.4088e-006
				2327.64	4.4088e-006
				2329.1	1.88522e-005
				2329.1	1.88522e-005
				2329.1	1.88522e-005
		2330.57	1.85932e-005	2330.57	9.31011e-006
		2330.57	9.31011e-006	2330.57	9.31011e-006
				2330.57	9.31011e-006
				2332.03	9.2822e-006
				2332.03	9.2822e-006
				2332.03	9.2822e-006
		2333.5	2.45036e-005	2333.5	1.58446e-005
		2333.5	1.58446e-005	2333.5	1.58446e-005
				2333.5	1.58446e-005
		2334.96	1.07086e-005	2334.96	6.70475e-007
		2334.96	6.70475e-007	2334.96	6.70475e-007
				2334.96	6.70475e-007
		2336.43	1.90509e-005	2336.43	9.11791e-006
		2336.43	9.11791e-006	2336.43	9.11791e-006
				2336.43	9.11791e-006
				2337.89	1.65586e-005
				2337.89	1.65586e-005
				2337.89	1.65586e-005
				2339.36	1.4216e-005
				2339.36	1.4216e-005
				2339.36	1.4216e-005
				2340.82	8.39702e-006
				2340.82	8.39702e-006
				2340.82	8.39702e-006
		2342.29	2.29745e-005	2342.29	5.46237e-006
		2342.29	5.46237e-006	2342.29	5.46237e-006
				2342.29	5.46237e-006
		2343.75	1.46299e-005	2343.75	2.54734e-006
		2343.75	2.54734e-006	2343.75	2.54734e-006
				2343.75	2.54734e-006
		2345.21	1.14347e-005	2345.21	7.0057e-006
		2345.21	7.0057e-006	2345.21	7.0057e-006
				2345.21	7.0057e-006
		2346.68	1.50393e-005	2346.68	2.43449e-006
		2346.68	2.43449e-006	2346.68	2.43449e-006
				2346.68	2.43449e-006
				2348.14	7.78468e-006
				2348.14	7.78468e-006
				2348.14	7.78468e-006
				2349.61	1.17377e-005
				2349.61	1.17377e-005
				2349.61	1.17377e-005
		2351.07	1.35671e-005	2351.07	3.20274e-006
		2351.07	3.20274e-006	2351.07	3.20274e-006
				2351.07	3.20274e-006
		2352.54	1.9607e-005	2352.54	6.4178e-006
		2352.54	6.4178e-006	2352.54	6.4178e-006
				2352.54	6.4178e-006
		2354	1.31591e-005	2354	3.71176e-006
		2354	3.71176e-006	2354	3.71176e-006
				2354	3.71176e-006
		2355.47	1.54469e-005	2355.47	1.23992e-005
		2355.47	1.23992e-005	2355.47	1.23992e-005
				2355.47	1.23992e-005
				2356.93	1.35255e-005
				2356.93	1.35255e-005
				2356.93	1.35255e-005
		2358.4	1.60101e-005	2358.4	1.18752e-005
		2358.4	1.18752e-005	2358.4	1.18752e-005
				2358.4	1.18752e-005
		2359.86	1.55825e-005	2359.86	3.68719e-006
		2359.86	3.68719e-006	2359.86	3.68719e-006
				2359.86	3.68719e-006
		2361.33	7.49227e-006	2361.33	5.77346e-006
		2361.33	5.77346e-006	2361.33	5.77346e-006
				2361.33	5.77346e-006
		2362.79	1.88916e-005	2362.79	2.75682e-006
		2362.79	2.75682e-006	2362.79	2.75682e-006
				2362.79	2.75682e-006
				2364.26	2.03009e-005
				2364.26	2.03009e-005
				2364.26	2.03009e-005
		2365.72	2.13884e-005	2365.72	1.15283e-005
		2365.72	1.15283e-005	2365.72	1.15283e-005
				2365.72	1.15283e-005
		2367.19	1.9714e-005	2367.19	6.38283e-006
		2367.19	6.38283e-006	2367.19	6.38283e-006
				2367.19	6.38283e-006
		2368.65	1.63982e-005	2368.65	1.28904e-005
		2368.65	1.28904e-005	2368.65	1.28904e-005
				2368.65	1.28904e-005
		2370.12	1.73669e-005	2370.12	1.7781e-006
		2370.12	1.7781e-006	2370.12	1.7781e-006
				2370.12	1.7781e-006
		2371.58	1.27653e-005	2371.58	9.7929e-006
		2371.58	9.7929e-006	2371.58	9.7929e-006
				2371.58	9.7929e-006
				2373.05	2.11925e-005
				2373.05	2.11925e-005
				2373.05	2.11925e-005
		2374.51	1.50858e-005	2374.51	1.23819e-005
		2374.51	1.23819e-005	2374.51	1.23819e-005
				2374.51	1.23819e-005
				2375.98	1.93743e-005
				2375.98	1.93743e-005
				2375.98	1.93743e-005
		2377.44	1.34137e-005	2377.44	1.1935e-005
		2377.44	1.1935e-005	2377.44	1.1935e-005
				2377.44	1.1935e-005
		2378.91	1.49497e-005	2378.91	7.73938e-006
		2378.91	7.73938e-006	2378.91	7.73938e-006
				2378.91	7.73938e-006
		2380.37	1.56781e-005	2380.37	7.86242e-006
		2380.37	7.86242e-006	2380.37	7.86242e-006
				2380.37	7.86242e-006
				2381.84	1.63939e-005
				2381.84	1.63939e-005
				2381.84	1.63939e-005
		2383.3	8.17654e-006	2383.3	7.40782e-006
		2383.3	7.40782e-006	2383.3	7.40782e-006
				2383.3	7.40782e-006
		2384.77	9.84944e-006	2384.77	9.04231e-006
		2384.77	9.04231e-006	2384.77	9.04231e-006
				2384.77	9.04231e-006
				2386.23	1.18917e-005
				2386.23	1.18917e-005
				2386.23	1.18917e-005
				2387.7	1.66321e-005
				2387.7	1.66321e-005
				2387.7	1.66321e-005
		2389.16	1.6867e-005	2389.16	9.79486e-006
		2389.16	9.79486e-006	2389.16	9.79486e-006
				2389.16	9.79486e-006
		2390.63	4.91139e-006	2390.63	2.99692e-006
		2390.63	2.99692e-006	2390.63	2.99692e-006
				2390.63	2.99692e-006
				2392.09	1.69571e-005
				2392.09	1.69571e-005
				2392.09	1.69571e-005
				2393.55	1.14237e-005
				2393.55	1.14237e-005
				2393.55	1.14237e-005
		2395.02	6.2407e-006	2395.02	5.84474e-006
		2395.02	5.84474e-006	2395.02	5.84474e-006
				2395.02	5.84474e-006
		2396.48	7.97601e-006	2396.48	1.5709e-006
		2396.48	1.5709e-006	2396.48	1.5709e-006
				2396.48	1.5709e-006
				2397.95	1.47551e-005
				2397.95	1.47551e-005
				2397.95	1.47551e-005
		2399.41	7.74602e-006	2399.41	6.59938e-006
		2399.41	6.59938e-006	2399.41	6.59938e-006
				2399.41	6.59938e-006
				2400.88	1.11059e-005
				2400.88	1.11059e-005
				2400.88	1.11059e-005
		2402.34	1.41482e-005	2402.34	8.71024e-006
		2402.34	8.71024e-006	2402.34	8.71024e-006
				2402.34	8.71024e-006
				2403.81	1.82527e-005
				2403.81	1.82527e-005
				2403.81	1.82527e-005
				2405.27	8.95545e-006
				2405.27	8.95545e-006
				2405.27	8.95545e-006
		2406.74	1.63913e-005	2406.74	9.21298e-006
		2406.74	9.21298e-006	2406.74	9.21298e-006
				2406.74	9.21298e-006
		2408.2	1.16146e-005	2408.2	1.09683e-005
		2408.2	1.09683e-005	2408.2	1.09683e-005
				2408.2	1.09683e-005
		2409.67	1.98188e-005	2409.67	5.48191e-006
		2409.67	5.48191e-006	2409.67	5.48191e-006
				2409.67	5.48191e-006
		2411.13	1.15285e-005	2411.13	9.32913e-006
		2411.13	9.32913e-006	2411.13	9.32913e-006
				2411.13	9.32913e-006
				2412.6	1.41363e-005
				2412.6	1.41363e-005
				2412.6	1.41363e-005
		2414.06	1.32431e-005	2414.06	1.12933e-005
		2414.06	1.12933e-005	2414.06	1.12933e-005
				2414.06	1.12933e-005
		2415.53	2.13277e-005	2415.53	5.236e-006
		2415.53	5.236e-006	2415.53	5.236e-006
				2415.53	5.236e-006
				2416.99	1.8905e-005
				2416.99	1.8905e-005
				2416.99	1.8905e-005
				2418.46	9.90724e-006
				2418.46	9.90724e-006
				2418.46	9.90724e-006
				2419.92	9.37678e-006
				2419.92	9.37678e-006
				2419.92	9.37678e-006
				2421.39	1.70439e-005
				2421.39	1.70439e-005
				2421.39	1.70439e-005
		2422.85	1.18864e-005	2422.85	6.1628e-006
		2422.85	6.1628e-006	2422.85	6.1628e-006
				2422.85	6.1628e-006
				2424.32	1.06018e-005
				2424.32	1.06018e-005
				2424.32	1.06018e-005
				2425.78	7.32933e-006
				2425.78	7.32933e-006
				2425.78	7.32933e-006
				2427.25	1.23172e-005
				2427.25	1.23172e-005
				2427.25	1.23172e-005
		2428.71	6.47911e-006	2428.71	1.27437e-006
		2428.71	1.27437e-006	2428.71	1.27437e-006
				2428.71	1.27437e-006
		2430.18	1.50727e-005	2430.18	1.39919e-005
		2430.18	1.39919e-005	2430.18	1.39919e-005
				2430.18	1.39919e-005
		2431.64	7.26449e-006	2431.64	5.7296e-006
		2431.64	5.7296e-006	2431.64	5.7296e-006
				2431.64	5.7296e-006
		2433.11	8.21964e-006	2433.11	5.38435e-006
		2433.11	5.38435e-006	2433.11	5.38435e-006
				2433.11	5.38435e-006
				2434.57	1.95502e-005
				2434.57	1.95502e-005
				2434.57	1.95502e-005
		2436.04	8.03214e-006	2436.04	7.61033e-006
		2436.04	7.61033e-006	2436.04	7.61033e-006
				2436.04	7.61033e-006
				2437.5	1.15948e-005
				2437.5	1.15948e-005
				2437.5	1.15948e-005
		2438.96	7.70515e-006	2438.96	4.33212e-006
		2438.96	4.33212e-006	2438.96	4.33212e-006
				2438.96	4.33212e-006
		2440.43	4.48595e-006	2440.43	2.87358e-006
		2440.43	2.87358e-006	2440.43	2.87358e-006
				2440.43	2.87358e-006
		2441.89	1.38228e-005	2441.89	7.92138e-006
		2441.89	7.92138e-006	2441.89	7.92138e-006
				2441.89	7.92138e-006
		2443.36	8.74417e-006	2443.36	6.75907e-006
		2443.36	6.75907e-006	2443.36	6.75907e-006
				2443.36	6.75907e-006
		2444.82	1.52771e-005	2444.82	1.11851e-005
		2444.82	1.11851e-005	2444.82	1.11851e-005
				2444.82	1.11851e-005
		2446.29	1.77835e-005	2446.29	5.19936e-006
		2446.29	5.19936e-006	2446.29	5.19936e-006
				2446.29	5.19936e-006
				2447.75	1.61791e-005
				2447.75	1.61791e-005
				2447.75	1.61791e-005
		2449.22	9.91463e-006	2449.22	8.72207e-006
		2449.22	8.72207e-006	2449.22	8.72207e-006
				2449.22	8.72207e-006
		2450.68	1.93658e-005	2450.68	1.80632e-005
		2450.68	1.80632e-005	2450.68	1.80632e-005
				2450.68	1.80632e-005
		2452.15	1.40608e-005	2452.15	1.39377e-005
		2452.15	1.39377e-005	2452.15	1.39377e-005
				2452.15	1.39377e-005
				2453.61	1.38121e-005
				2453.61	1.38121e-005
				2453.61	1.38121e-005
				2455.08	2.59927e-005
				2455.08	2.59927e-005
				2455.08	2.59927e-005
				2456.54	1.31955e-005
				2456.54	1.31955e-005
				2456.54	1.31955e-005
		2458.01	1.66062e-005	2458.01	3.55318e-006
		2458.01	3.55318e-006	2458.01	3.55318e-006
				2458.01	3.55318e-006
		2459.47	2.0399e-005	2459.47	1.05192e-005
		2459.47	1.05192e-005	2459.47	1.05192e-005
				2459.47	1.05192e-005
		2460.94	1.13129e-005	2460.94	5.61635e-006
		2460.94	5.61635e-006	2460.94	5.61635e-006
				2460.94	5.61635e-006
				2462.4	7.52145e-006
				2462.4	7.52145e-006
				2462.4	7.52145e-006
		2463.87	1.41039e-005	2463.87	1.37482e-005
		2463.87	1.37482e-005	2463.87	1.37482e-005
				2463.87	1.37482e-005
				2465.33	4.75218e-006
				2465.33	4.75218e-006
				2465.33	4.75218e-006
				2466.8	7.76422e-006
				2466.8	7.76422e-006
				2466.8	7.76422e-006
				2468.26	1.6764e-005
				2468.26	1.6764e-005
				2468.26	1.6764e-005
				2469.73	1.05525e-005
				2469.73	1.05525e-005
				2469.73	1.05525e-005
				2471.19	5.60036e-006
				2471.19	5.60036e-006
				2471.19	5.60036e-006
		2472.66	1.08783e-005	2472.66	4.14256e-006
		2472.66	4.14256e-006	2472.66	4.14256e-006
				2472.66	4.14256e-006
				2474.12	1.4263e-005
				2474.12	1.4263e-005
				2474.12	1.4263e-005
				2475.59	1.92242e-005
				2475.59	1.92242e-005
				2475.59	1.92242e-005
				2477.05	9.34275e-006
				2477.05	9.34275e-006
				2477.05	9.34275e-006
				2478.52	1.90565e-005
				2478.52	1.90565e-005
				2478.52	1.90565e-005
		2479.98	1.67244e-005	2479.98	9.2464e-006
		2479.98	9.2464e-006	2479.98	9.2464e-006
				2479.98	9.2464e-006
		2481.45	7.08081e-006	2481.45	2.26648e-006
		2481.45	2.26648e-006	2481.45	2.26648e-006
				2481.45	2.26648e-006
				2482.91	8.14007e-006
				2482.91	8.14007e-006
				2482.91	8.14007e-006
		2484.38	1.24281e-005	2484.38	1.10525e-005
		2484.38	1.10525e-005	2484.38	1.10525e-005
				2484.38	1.10525e-005
		2485.84	3.25219e-006	2485.84	1.0652e-006
		2485.84	1.0652e-006	2485.84	1.0652e-006
				2485.84	1.0652e-006
				2487.3	9.11414e-006
				2487.3	9.11414e-006
				2487.3	9.11414e-006
				2488.77	1.48493e-005
				2488.77	1.48493e-005
				2488.77	1.48493e-005
				2490.23	8.45777e-006
				2490.23	8.45777e-006
				2490.23	8.45777e-006
				2491.7	1.1574e-005
				2491.7	1.1574e-005
				2491.7	1.1574e-005
		2493.16	1.76269e-005	2493.16	7.15231e-006
		2493.16	7.15231e-006	2493.16	7.15231e-006
				2493.16	7.15231e-006
				2494.63	1.48415e-005
				2494.63	1.48415e-005
				2494.63	1.48415e-005
				2496.09	1.58945e-005
				2496.09	1.58945e-005
				2496.09	1.58945e-005
		2497.56	8.70677e-006	2497.56	3.38267e-006
		2497.56	3.38267e-006	2497.56	3.38267e-006
				2497.56	3.38267e-006
				2499.02	1.22926e-005
				2499.02	1.22926e-005
				2499.02	1.22926e-005
		2500.49	1.67732e-005	2500.49	1.04371e-005
		2500.49	1.04371e-005	2500.49	1.04371e-005
				2500.49	1.04371e-005
		2501.95	6.3314e-006	2501.95	4.21055e-006
		2501.95	4.21055e-006	2501.95	4.21055e-006
				2501.95	4.21055e-006
				2503.42	2.08375e-006
				2503.42	2.08375e-006
				2503.42	2.08375e-006
		2504.88	1.07821e-005	2504.88	6.47143e-006
		2504.88	6.47143e-006	2504.88	6.47143e-006
				2504.88	6.47143e-006
				2506.35	4.6142e-006
				2506.35	4.6142e-006
				2506.35	4.6142e-006
		2507.81	1.42831e-005	2507.81	8.29194e-006
		2507.81	8.29194e-006	2507.81	8.29194e-006
				2507.81	8.29194e-006
		2509.28	1.94641e-005	2509.28	6.243e-006
		2509.28	6.243e-006	2509.28	6.243e-006
				2509.28	6.243e-006
		2510.74	1.72389e-005	2510.74	1.40914e-005
		2510.74	1.40914e-005	2510.74	1.40914e-005
				2510.74	1.40914e-005
		2512.21	1.63843e-005	2512.21	8.72545e-006
		2512.21	8.72545e-006	2512.21	8.72545e-006
				2512.21	8.72545e-006
		2513.67	1.71567e-005	2513.67	1.19464e-005
		2513.67	1.19464e-005	2513.67	1.19464e-005
				2513.67	1.19464e-005
				2515.14	1.17969e-005
				2515.14	1.17969e-005
				2515.14	1.17969e-005
				2516.6	1.0869e-005
				2516.6	1.0869e-005
				2516.6	1.0869e-005
		2518.07	1.53043e-005	2518.07	5.78241e-006
		2518.07	5.78241e-006	2518.07	5.78241e-006
				2518.07	5.78241e-006
		2519.53	1.15936e-005	2519.53	1.11522e-005
		2519.53	1.11522e-005	2519.53	1.11522e-005
				2519.53	1.11522e-005
				2521	1.36257e-005
				2521	1.36257e-005
				2521	1.36257e-005
				2522.46	1.34269e-005
				2522.46	1.34269e-005
				2522.46	1.34269e-005
				2523.93	1.28449e-005
				2523.93	1.28449e-005
				2523.93	1.28449e-005
		2525.39	1.40236e-005	2525.39	1.37117e-005
		2525.39	1.37117e-005	2525.39	1.37117e-005
				2525.39	1.37117e-005
		2526.86	1.49786e-005	2526.86	2.60706e-006
		2526.86	2.60706e-006	2526.86	2.60706e-006
				2526.86	2.60706e-006
				2528.32	1.16384e-005
				2528.32	1.16384e-005
				2528.32	1.16384e-005
				2529.79	2.65508e-006
				2529.79	2.65508e-006
				2529.79	2.65508e-006
				2531.25	5.24775e-006
				2531.25	5.24775e-006
				2531.25	5.24775e-006
				2532.71	2.27517e-006
				2532.71	2.27517e-006
				2532.71	2.27517e-006
				2534.18	7.33589e-006
				2534.18	7.33589e-006
				2534.18	7.33589e-006
		2535.64	1.54117e-005	2535.64	3.43961e-006
		2535.64	3.43961e-006	2535.64	3.43961e-006
				2535.64	3.43961e-006
				2537.11	1.36914e-005
				2537.11	1.36914e-005
				2537.11	1.36914e-005
				2538.57	3.53518e-006
				2538.57	3.53518e-006
				2538.57	3.53518e-006
				2540.04	1.09623e-005
				2540.04	1.09623e-005
				2540.04	1.09623e-005
		2541.5	1.56845e-005	2541.5	8.77795e-006
		2541.5	8.77795e-006	2541.5	8.77795e-006
				2541.5	8.77795e-006
		2542.97	9.25459e-006	2542.97	6.59333e-006
		2542.97	6.59333e-006	2542.97	6.59333e-006
				2542.97	6.59333e-006
				2544.43	9.3694e-006
				2544.43	9.3694e-006
				2544.43	9.3694e-006
		2545.9	1.19161e-005	2545.9	6.8674e-006
		2545.9	6.8674e-006	2545.9	6.8674e-006
				2545.9	6.8674e-006
				2547.36	1.15457e-005
				2547.36	1.15457e-005
				2547.36	1.15457e-005
		2548.83	3.55439e-006	2548.83	3.32882e-006
		2548.83	3.32882e-006	2548.83	3.32882e-006
				2548.83	3.32882e-006
		2550.29	4.35243e-006	2550.29	5.60559e-007
		2550.29	5.60559e-007	2550.29	5.60559e-007
				2550.29	5.60559e-007
				2551.76	8.80784e-006
				2551.76	8.80784e-006
				2551.76	8.80784e-006
				2553.22	1.67083e-005
				2553.22	1.67083e-005
				2553.22	1.67083e-005
		2554.69	8.76425e-006	2554.69	7.71386e-006
		2554.69	7.71386e-006	2554.69	7.71386e-006
				2554.69	7.71386e-006
				2556.15	1.32314e-005
				2556.15	1.32314e-005
				2556.15	1.32314e-005
		2557.62	5.84742e-006	2557.62	3.66746e-006
		2557.62	3.66746e-006	2557.62	3.66746e-006
				2557.62	3.66746e-006
		2559.08	1.04792e-005	2559.08	5.07693e-006
		2559.08	5.07693e-006	2559.08	5.07693e-006
				2559.08	5.07693e-006
		2560.55	4.62882e-005	2560.55	1.6476e-005
		2560.55	1.6476e-005	2560.55	1.6476e-005
				2560.55	1.6476e-005
		2562.01	9.59743e-006	2562.01	5.23544e-006
		2562.01	5.23544e-006	2562.01	5.23544e-006
				2562.01	5.23544e-006
				2563.48	1.15703e-005
				2563.48	1.15703e-005
				2563.48	1.15703e-005
		2564.94	9.39743e-006	2564.94	6.06114e-006
		2564.94	6.06114e-006	2564.94	6.06114e-006
				2564.94	6.06114e-006
		2566.41	1.54221e-006	2566.41	1.31155e-006
		2566.41	1.31155e-006	2566.41	1.31155e-006
				2566.41	1.31155e-006
				2567.87	7.43119e-006
				2567.87	7.43119e-006
				2567.87	7.43119e-006
		2569.34	8.90987e-006	2569.34	2.32213e-006
		2569.34	2.32213e-006	2569.34	2.32213e-006
				2569.34	2.32213e-006
		2570.8	3.48876e-006	2570.8	3.35279e-006
		2570.8	3.35279e-006	2570.8	3.35279e-006
				2570.8	3.35279e-006
				2572.27	9.49148e-006
				2572.27	9.49148e-006
				2572.27	9.49148e-006
		2573.73	8.42214e-006	2573.73	7.70558e-006
		2573.73	7.70558e-006	2573.73	7.70558e-006
				2573.73	7.70558e-006
				2575.2	7.81987e-006
				2575.2	7.81987e-006
				2575.2	7.81987e-006
				2576.66	5.49923e-006
				2576.66	5.49923e-006
				2576.66	5.49923e-006
		2578.13	7.77063e-006	2578.13	2.26837e-006
		2578.13	2.26837e-006	2578.13	2.26837e-006
				2578.13	2.26837e-006
				2579.59	1.13495e-005
				2579.59	1.13495e-005
				2579.59	1.13495e-005
				2581.05	2.29548e-006
				2581.05	2.29548e-006
				2581.05	2.29548e-006
				2582.52	4.72985e-006
				2582.52	4.72985e-006
				2582.52	4.72985e-006
				2583.98	2.14281e-006
				2583.98	2.14281e-006
				2583.98	2.14281e-006
				2585.45	5.37294e-006
				2585.45	5.37294e-006
				2585.45	5.37294e-006
		2586.91	9.70116e-006	2586.91	3.63655e-006
		2586.91	3.63655e-006	2586.91	3.63655e-006
				2586.91	3.63655e-006
		2588.38	5.23283e-006	2588.38	1.44396e-006
		2588.38	1.44396e-006	2588.38	1.44396e-006
				2588.38	1.44396e-006
				2589.84	6.41916e-006
				2589.84	6.41916e-006
				2589.84	6.41916e-006
		2591.31	6.50447e-006	2591.31	2.46511e-006
		2591.31	2.46511e-006	2591.31	2.46511e-006
				2591.31	2.46511e-006
		2592.77	6.16741e-006	2592.77	2.58294e-006
		2592.77	2.58294e-006	2592.77	2.58294e-006
				2592.77	2.58294e-006
				2594.24	6.98427e-006
				2594.24	6.98427e-006
				2594.24	6.98427e-006
				2595.7	3.89777e-006
				2595.7	3.89777e-006
				2595.7	3.89777e-006
				2597.17	7.0521e-006
				2597.17	7.0521e-006
				2597.17	7.0521e-006
				2598.63	8.25037e-006
				2598.63	8.25037e-006
				2598.63	8.25037e-006
		2600.1	7.07703e-006	2600.1	5.47748e-006
		2600.1	5.47748e-006	2600.1	5.47748e-006
				2600.1	5.47748e-006
		2601.56	5.00157e-006	2601.56	3.75562e-006
		2601.56	3.75562e-006	2601.56	3.75562e-006
				2601.56	3.75562e-006
		2603.03	1.11519e-005	2603.03	3.11277e-006
		2603.03	3.11277e-006	2603.03	3.11277e-006
				2603.03	3.11277e-006
				2604.49	1.07004e-005
				2604.49	1.07004e-005
				2604.49	1.07004e-005
		2605.96	1.17203e-005	2605.96	4.92815e-006
		2605.96	4.92815e-006	2605.96	4.92815e-006
				2605.96	4.92815e-006
				2607.42	1.01905e-005
				2607.42	1.01905e-005
				2607.42	1.01905e-005
				2608.89	9.66599e-006
				2608.89	9.66599e-006
				2608.89	9.66599e-006
				2610.35	3.57363e-006
				2610.35	3.57363e-006
				2610.35	3.57363e-006
				2611.82	4.65424e-006
				2611.82	4.65424e-006
				2611.82	4.65424e-006
				2613.28	6.5412e-006
				2613.28	6.5412e-006
				2613.28	6.5412e-006
				2614.75	8.37095e-006
				2614.75	8.37095e-006
				2614.75	8.37095e-006
		2616.21	3.82838e-006	2616.21	3.22084e-006
		2616.21	3.22084e-006	2616.21	3.22084e-006
				2616.21	3.22084e-006
		2617.68	7.09343e-006	2617.68	4.86096e-006
		2617.68	4.86096e-006	2617.68	4.86096e-006
				2617.68	4.86096e-006
		2619.14	7.63213e-006	2619.14	6.70926e-006
		2619.14	6.70926e-006	2619.14	6.70926e-006
				2619.14	6.70926e-006
				2620.61	3.41706e-006
				2620.61	3.41706e-006
				2620.61	3.41706e-006
		2622.07	1.27483e-005	2622.07	3.36618e-006
		2622.07	3.36618e-006	2622.07	3.36618e-006
				2622.07	3.36618e-006
		2623.54	7.01751e-006	2623.54	3.72636e-006
		2623.54	3.72636e-006	2623.54	3.72636e-006
				2623.54	3.72636e-006
		2625	2.68663e-006	2625	2.21971e-006
		2625	2.21971e-006	2625	2.21971e-006
				2625	2.21971e-006
		2626.46	1.00644e-005	2626.46	8.5321e-006
		2626.46	8.5321e-006	2626.46	8.5321e-006
				2626.46	8.5321e-006
				2627.93	1.07125e-005
				2627.93	1.07125e-005
				2627.93	1.07125e-005
		2629.39	9.93298e-006	2629.39	1.66519e-006
		2629.39	1.66519e-006	2629.39	1.66519e-006
				2629.39	1.66519e-006
		2630.86	5.30372e-006	2630.86	4.71776e-006
		2630.86	4.71776e-006	2630.86	4.71776e-006
				2630.86	4.71776e-006
				2632.32	1.01923e-005
				2632.32	1.01923e-005
				2632.32	1.01923e-005
		2633.79	7.16518e-006	2633.79	4.11538e-006
		2633.79	4.11538e-006	2633.79	4.11538e-006
				2633.79	4.11538e-006
				2635.25	2.52103e-006
				2635.25	2.52103e-006
				2635.25	2.52103e-006
		2636.72	7.86076e-006	2636.72	1.9216e-006
		2636.72	1.9216e-006	2636.72	1.9216e-006
				2636.72	1.9216e-006
				2638.18	2.3758e-006
				2638.18	2.3758e-006
				2638.18	2.3758e-006
		2639.65	7.58314e-006	2639.65	5.14318e-006
		2639.65	5.14318e-006	2639.65	5.14318e-006
				2639.65	5.14318e-006
		2641.11	5.02005e-006	2641.11	5.29784e-007
		2641.11	5.29784e-007	2641.11	5.29784e-007
				2641.11	5.29784e-007
		2642.58	6.234e-006	2642.58	4.4568e-006
		2642.58	4.4568e-006	2642.58	4.4568e-006
				2642.58	4.4568e-006
		2644.04	8.02785e-006	2644.04	7.74814e-006
		2644.04	7.74814e-006	2644.04	7.74814e-006
				2644.04	7.74814e-006
				2645.51	7.44744e-006
				2645.51	7.44744e-006
				2645.51	7.44744e-006
				2646.97	7.08462e-006
				2646.97	7.08462e-006
				2646.97	7.08462e-006
		2648.44	5.55685e-006	2648.44	1.40058e-006
		2648.44	1.40058e-006	2648.44	1.40058e-006
				2648.44	1.40058e-006
				2649.9	3.35612e-006
				2649.9	3.35612e-006
				2649.9	3.35612e-006
		2651.37	4.97264e-006	2651.37	1.16306e-006
		2651.37	1.16306e-006	2651.37	1.16306e-006
				2651.37	1.16306e-006
		2652.83	9.50147e-006	2652.83	7.61332e-006
		2652.83	7.61332e-006	2652.83	7.61332e-006
				2652.83	7.61332e-006
				2654.3	6.96848e-006
				2654.3	6.96848e-006
				2654.3	6.96848e-006
				2655.76	2.70199e-006
				2655.76	2.70199e-006
				2655.76	2.70199e-006
		2657.23	2.54251e-006	2657.23	2.52428e-006
		2657.23	2.52428e-006	2657.23	2.52428e-006
				2657.23	2.52428e-006
				2658.69	5.24637e-006
				2658.69	5.24637e-006
				2658.69	5.24637e-006
				2660.16	7.16008e-006
				2660.16	7.16008e-006
				2660.16	7.16008e-006
		2661.62	3.93388e-006	2661.62	3.45915e-006
		2661.62	3.45915e-006	2661.62	3.45915e-006
				2661.62	3.45915e-006
				2663.09	4.08037e-006
				2663.09	4.08037e-006
				2663.09	4.08037e-006
		2664.55	5.34853e-006	2664.55	3.05088e-006
		2664.55	3.05088e-006	2664.55	3.05088e-006
				2664.55	3.05088e-006
		2666.02	4.73303e-006	2666.02	2.05346e-006
		2666.02	2.05346e-006	2666.02	2.05346e-006
				2666.02	2.05346e-006
		2667.48	4.57437e-006	2667.48	2.15782e-006
		2667.48	2.15782e-006	2667.48	2.15782e-006
				2667.48	2.15782e-006
		2668.95	5.03239e-006	2668.95	4.47412e-006
		2668.95	4.47412e-006	2668.95	4.47412e-006
				2668.95	4.47412e-006
				2670.41	1.04057e-005
				2670.41	1.04057e-005
				2670.41	1.04057e-005
				2671.88	5.97314e-006
				2671.88	5.97314e-006
				2671.88	5.97314e-006
				2673.34	4.4727e-006
				2673.34	4.4727e-006
				2673.34	4.4727e-006
				2674.8	4.03576e-006
				2674.8	4.03576e-006
				2674.8	4.03576e-006
				2676.27	5.28007e-006
				2676.27	5.28007e-006
				2676.27	5.28007e-006
		2677.73	6.83753e-006	2677.73	1.26888e-006
		2677.73	1.26888e-006	2677.73	1.26888e-006
				2677.73	1.26888e-006
		2679.2	4.84798e-006	2679.2	1.05441e-006
		2679.2	1.05441e-006	2679.2	1.05441e-006
				2679.2	1.05441e-006
				2680.66	5.4668e-006
				2680.66	5.4668e-006
				2680.66	5.4668e-006
				2682.13	6.92111e-006
				2682.13	6.92111e-006
				2682.13	6.92111e-006
				2683.59	3.80797e-006
				2683.59	3.80797e-006
				2683.59	3.80797e-006
				2685.06	3.82436e-006
				2685.06	3.82436e-006
				2685.06	3.82436e-006
				2686.52	2.60129e-006
				2686.52	2.60129e-006
				2686.52	2.60129e-006
		2687.99	3.64061e-006	2687.99	2.191e-006
		2687.99	2.191e-006	2687.99	2.191e-006
				2687.99	2.191e-006
				2689.45	5.50166e-006
				2689.45	5.50166e-006
				2689.45	5.50166e-006
				2690.92	5.38877e-006
				2690.92	5.38877e-006
				2690.92	5.38877e-006
				2692.38	4.18626e-006
				2692.38	4.18626e-006
				2692.38	4.18626e-006
				2693.85	5.6968e-006
				2693.85	5.6968e-006
				2693.85	5.6968e-006
				2695.31	3.98667e-006
				2695.31	3.98667e-006
				2695.31	3.98667e-006
		2696.78	5.61689e-006	2696.78	1.03699e-006
		2696.78	1.03699e-006	2696.78	1.03699e-006
				2696.78	1.03699e-006
		2698.24	4.91053e-006	2698.24	2.19623e-006
		2698.24	2.19623e-006	2698.24	2.19623e-006
				2698.24	2.19623e-006
				2699.71	6.08798e-006
				2699.71	6.08798e-006
				2699.71	6.08798e-006
		2701.17	4.84158e-006	2701.17	1.89733e-006
		2701.17	1.89733e-006	2701.17	1.89733e-006
				2701.17	1.89733e-006
				2702.64	2.19747e-006
				2702.64	2.19747e-006
				2702.64	2.19747e-006
				2704.1	1.75796e-006
				2704.1	1.75796e-006
				2704.1	1.75796e-006
				2705.57	2.90452e-006
				2705.57	2.90452e-006
				2705.57	2.90452e-006
		2707.03	3.27325e-006	2707.03	2.5902e-006
		2707.03	2.5902e-006	2707.03	2.5902e-006
				2707.03	2.5902e-006
				2708.5	3.00975e-006
				2708.5	3.00975e-006
				2708.5	3.00975e-006
		2709.96	3.05919e-006	2709.96	1.01169e-006
		2709.96	1.01169e-006	2709.96	1.01169e-006
				2709.96	1.01169e-006
				2711.43	3.40114e-006
				2711.43	3.40114e-006
				2711.43	3.40114e-006
		2712.89	4.53966e-006	2712.89	1.70235e-006
		2712.89	1.70235e-006	2712.89	1.70235e-006
				2712.89	1.70235e-006
				2714.36	3.00883e-006
				2714.36	3.00883e-006
				2714.36	3.00883e-006
		2715.82	2.89496e-006	2715.82	2.43123e-006
		2715.82	2.43123e-006	2715.82	2.43123e-006
				2715.82	2.43123e-006
		2717.29	4.16718e-006	2717.29	1.53886e-007
		2717.29	1.53886e-007	2717.29	1.53886e-007
				2717.29	1.53886e-007
				2718.75	3.30872e-006
				2718.75	3.30872e-006
				2718.75	3.30872e-006
		2720.21	3.22139e-006	2720.21	3.05122e-006
		2720.21	3.05122e-006	2720.21	3.05122e-006
				2720.21	3.05122e-006
				2721.68	4.2183e-006
				2721.68	4.2183e-006
				2721.68	4.2183e-006
				2723.14	3.72884e-006
				2723.14	3.72884e-006
				2723.14	3.72884e-006
				2724.61	4.09091e-006
				2724.61	4.09091e-006
				2724.61	4.09091e-006
		2726.07	3.146e-006	2726.07	1.39149e-006
		2726.07	1.39149e-006	2726.07	1.39149e-006
				2726.07	1.39149e-006
				2727.54	3.14754e-006
				2727.54	3.14754e-006
				2727.54	3.14754e-006
		2729	5.40252e-006	2729	4.60623e-006
		2729	4.60623e-006	2729	4.60623e-006
				2729	4.60623e-006
				2730.47	2.8594e-006
				2730.47	2.8594e-006
				2730.47	2.8594e-006
		2731.93	1.26556e-006	2731.93	9.96037e-007
		2731.93	9.96037e-007	2731.93	9.96037e-007
				2731.93	9.96037e-007
				2733.4	3.64158e-006
				2733.4	3.64158e-006
				2733.4	3.64158e-006
		2734.86	2.91768e-006	2734.86	1.75505e-006
		2734.86	1.75505e-006	2734.86	1.75505e-006
				2734.86	1.75505e-006
				2736.33	2.62152e-006
				2736.33	2.62152e-006
				2736.33	2.62152e-006
		2737.79	1.3041e-006	2737.79	1.19814e-006
		2737.79	1.19814e-006	2737.79	1.19814e-006
				2737.79	1.19814e-006
				2739.26	1.87384e-006
				2739.26	1.87384e-006
				2739.26	1.87384e-006
				2740.72	1.9514e-006
				2740.72	1.9514e-006
				2740.72	1.9514e-006
		2742.19	2.1079e-006	2742.19	1.27011e-006
		2742.19	1.27011e-006	2742.19	1.27011e-006
				2742.19	1.27011e-006
		2743.65	1.18006e-006	2743.65	4.82521e-007
		2743.65	4.82521e-007	2743.65	4.82521e-007
				2743.65	4.82521e-007
				2745.12	1.20612e-006
				2745.12	1.20612e-006
				2745.12	1.20612e-006
				2746.58	2.76815e-006
				2746.58	2.76815e-006
				2746.58	2.76815e-006
		2748.05	2.49823e-006	2748.05	2.0798e-006
		2748.05	2.0798e-006	2748.05	2.0798e-006
				2748.05	2.0798e-006
		2749.51	1.68238e-006	2749.51	8.37733e-007
		2749.51	8.37733e-007	2749.51	8.37733e-007
				2749.51	8.37733e-007
		2750.98	2.05553e-006	2750.98	1.00577e-006
		2750.98	1.00577e-006	2750.98	1.00577e-006
				2750.98	1.00577e-006
				2752.44	3.24045e-006
				2752.44	3.24045e-006
				2752.44	3.24045e-006
		2753.91	2.54125e-006	2753.91	1.19851e-006
		2753.91	1.19851e-006	2753.91	1.19851e-006
				2753.91	1.19851e-006
		2755.37	2.07305e-006	2755.37	1.83448e-006
		2755.37	1.83448e-006	2755.37	1.83448e-006
				2755.37	1.83448e-006
				2756.84	8.84462e-007
				2756.84	8.84462e-007
				2756.84	8.84462e-007
				2758.3	2.55439e-006
				2758.3	2.55439e-006
				2758.3	2.55439e-006
		2759.77	1.46887e-006	2759.77	1.23942e-006
		2759.77	1.23942e-006	2759.77	1.23942e-006
				2759.77	1.23942e-006
				2761.23	1.8443e-006
				2761.23	1.8443e-006
				2761.23	1.8443e-006
		2762.7	3.52115e-006	2762.7	1.68588e-006
		2762.7	1.68588e-006	2762.7	1.68588e-006
				2762.7	1.68588e-006
				2764.16	2.49078e-006
				2764.16	2.49078e-006
				2764.16	2.49078e-006
		2765.63	2.94607e-006	2765.63	1.39955e-006
		2765.63	1.39955e-006	2765.63	1.39955e-006
				2765.63	1.39955e-006
				2767.09	1.7679e-006
				2767.09	1.7679e-006
				2767.09	1.7679e-006
		2768.55	1.37606e-006	2768.55	1.11354e-006
		2768.55	1.11354e-006	2768.55	1.11354e-006
				2768.55	1.11354e-006
				2770.02	4.0706e-006
				2770.02	4.0706e-006
				2770.02	4.0706e-006
				2771.48	1.87637e-006
				2771.48	1.87637e-006
				2771.48	1.87637e-006
		2772.95	1.13714e-006	2772.95	7.58606e-007
		2772.95	7.58606e-007	2772.95	7.58606e-007
				2772.95	7.58606e-007
				2774.41	1.62368e-006
				2774.41	1.62368e-006
				2774.41	1.62368e-006
		2775.88	1.63054e-006	2775.88	6.43439e-007
		2775.88	6.43439e-007	2775.88	6.43439e-007
				2775.88	6.43439e-007
		2777.34	1.87405e-006	2777.34	7.6437e-007
		2777.34	7.6437e-007	2777.34	7.6437e-007
				2777.34	7.6437e-007
				2778.81	1.60176e-006
				2778.81	1.60176e-006
				2778.81	1.60176e-006
				2780.27	9.98393e-007
				2780.27	9.98393e-007
				2780.27	9.98393e-007
		2781.74	1.22357e-006	2781.74	2.99554e-007
		2781.74	2.99554e-007	2781.74	2.99554e-007
				2781.74	2.99554e-007
		2783.2	2.6532e-006	2783.2	2.23441e-006
		2783.2	2.23441e-006	2783.2	2.23441e-006
				2783.2	2.23441e-006
				2784.67	2.19186e-006
				2784.67	2.19186e-006
				2784.67	2.19186e-006
				2786.13	1.54177e-006
				2786.13	1.54177e-006
				2786.13	1.54177e-006
				2787.6	1.2848e-006
				2787.6	1.2848e-006
				2787.6	1.2848e-006
		2789.06	1.37352e-006	2789.06	1.34922e-006
		2789.06	1.34922e-006	2789.06	1.34922e-006
				2789.06	1.34922e-006
		2790.53	1.32394e-006	2790.53	1.13244e-006
		2790.53	1.13244e-006	2790.53	1.13244e-006
				2790.53	1.13244e-006
				2791.99	2.42462e-006
				2791.99	2.42462e-006
				2791.99	2.42462e-006
		2793.46	2.9303e-006	2793.46	2.65494e-006
		2793.46	2.65494e-006	2793.46	2.65494e-006
				2793.46	2.65494e-006
				2794.92	2.23644e-006
				2794.92	2.23644e-006
				2794.92	2.23644e-006
				2796.39	3.13953e-006
				2796.39	3.13953e-006
				2796.39	3.13953e-006
				2797.85	1.59025e-006
				2797.85	1.59025e-006
				2797.85	1.59025e-006
				2799.32	2.57891e-006
				2799.32	2.57891e-006
				2799.32	2.57891e-006
				2800.78	1.30669e-006
				2800.78	1.30669e-006
				2800.78	1.30669e-006
		2802.25	2.0797e-006	2802.25	1.13848e-006
		2802.25	1.13848e-006	2802.25	1.13848e-006
				2802.25	1.13848e-006
				2803.71	8.76145e-007
				2803.71	8.76145e-007
				2803.71	8.76145e-007
				2805.18	2.09079e-006
				2805.18	2.09079e-006
				2805.18	2.09079e-006
		2806.64	2.42393e-006	2806.64	1.75995e-006
		2806.64	1.75995e-006	2806.64	1.75995e-006
				2806.64	1.75995e-006
		2808.11	1.23113e-006	2808.11	8.91818e-007
		2808.11	8.91818e-007	2808.11	8.91818e-007
				2808.11	8.91818e-007
				2809.57	2.7729e-006
				2809.57	2.7729e-006
				2809.57	2.7729e-006
		2811.04	5.39216e-007	2811.04	2.67573e-007
		2811.04	2.67573e-007	2811.04	2.67573e-007
				2811.04	2.67573e-007
		2812.5	1.18483e-006	2812.5	1.15342e-006
		2812.5	1.15342e-006	2812.5	1.15342e-006
				2812.5	1.15342e-006
		2813.96	1.44981e-006	2813.96	8.24735e-007
		2813.96	8.24735e-007	2813.96	8.24735e-007
				2813.96	8.24735e-007
				2815.43	1.97291e-006
				2815.43	1.97291e-006
				2815.43	1.97291e-006
				2816.89	1.6474e-006
				2816.89	1.6474e-006
				2816.89	1.6474e-006
				2818.36	9.89393e-007
				2818.36	9.89393e-007
				2818.36	9.89393e-007
		2819.82	1.86955e-006	2819.82	1.18117e-006
		2819.82	1.18117e-006	2819.82	1.18117e-006
				2819.82	1.18117e-006
		2821.29	2.37061e-006	2821.29	1.48878e-006
		2821.29	1.48878e-006	2821.29	1.48878e-006
				2821.29	1.48878e-006
				2822.75	2.29063e-006
				2822.75	2.29063e-006
				2822.75	2.29063e-006
				2824.22	1.59491e-006
				2824.22	1.59491e-006
				2824.22	1.59491e-006
				2825.68	1.56815e-006
				2825.68	1.56815e-006
				2825.68	1.56815e-006
		2827.15	1.49215e-006	2827.15	4.78595e-007
		2827.15	4.78595e-007	2827.15	4.78595e-007
				2827.15	4.78595e-007
		2828.61	1.12589e-006	2828.61	3.77381e-007
		2828.61	3.77381e-007	2828.61	3.77381e-007
				2828.61	3.77381e-007
				2830.08	1.47899e-006
				2830.08	1.47899e-006
				2830.08	1.47899e-006
				2831.54	2.11698e-006
				2831.54	2.11698e-006
				2831.54	2.11698e-006
		2833.01	1.15959e-006	2833.01	1.05361e-006
		2833.01	1.05361e-006	2833.01	1.05361e-006
				2833.01	1.05361e-006
				2834.47	1.95359e-006
				2834.47	1.95359e-006
				2834.47	1.95359e-006
				2835.94	2.1178e-006
				2835.94	2.1178e-006
				2835.94	2.1178e-006
				2837.4	1.48829e-006
				2837.4	1.48829e-006
				2837.4	1.48829e-006
				2838.87	1.51392e-006
				2838.87	1.51392e-006
				2838.87	1.51392e-006
				2840.33	1.21557e-006
				2840.33	1.21557e-006
				2840.33	1.21557e-006
				2841.8	9.70414e-007
				2841.8	9.70414e-007
				2841.8	9.70414e-007
		2843.26	1.25893e-006	2843.26	2.1504e-007
		2843.26	2.1504e-007	2843.26	2.1504e-007
				2843.26	2.1504e-007
				2844.73	1.23795e-006
				2844.73	1.23795e-006
				2844.73	1.23795e-006
				2846.19	1.32771e-006
				2846.19	1.32771e-006
				2846.19	1.32771e-006
				2847.66	1.11164e-006
				2847.66	1.11164e-006
				2847.66	1.11164e-006
				2849.12	1.56072e-006
				2849.12	1.56072e-006
				2849.12	1.56072e-006
				2850.59	8.92983e-007
				2850.59	8.92983e-007
				2850.59	8.92983e-007
		2852.05	5.59794e-007	2852.05	4.83697e-007
		2852.05	4.83697e-007	2852.05	4.83697e-007
				2852.05	4.83697e-007
				2853.52	8.37557e-007
				2853.52	8.37557e-007
				2853.52	8.37557e-007
				2854.98	1.88997e-006
				2854.98	1.88997e-006
				2854.98	1.88997e-006
				2856.45	1.41569e-006
				2856.45	1.41569e-006
				2856.45	1.41569e-006
				2857.91	9.61588e-007
				2857.91	9.61588e-007
				2857.91	9.61588e-007
				2859.38	1.43091e-006
				2859.38	1.43091e-006
				2859.38	1.43091e-006
				2860.84	5.59209e-007
				2860.84	5.59209e-007
				2860.84	5.59209e-007
		2862.3	1.19671e-006	2862.3	7.30012e-007
		2862.3	7.30012e-007	2862.3	7.30012e-007
				2862.3	7.30012e-007
				2863.77	1.41524e-006
				2863.77	1.41524e-006
				2863.77	1.41524e-006
		2865.23	7.55656e-007	2865.23	6.45676e-007
		2865.23	6.45676e-007	2865.23	6.45676e-007
				2865.23	6.45676e-007
				2866.7	9.01137e-007
				2866.7	9.01137e-007
				2866.7	9.01137e-007
				2868.16	1.59667e-006
				2868.16	1.59667e-006
				2868.16	1.59667e-006
				2869.63	4.45589e-007
				2869.63	4.45589e-007
				2869.63	4.45589e-007
		2871.09	1.21264e-006	2871.09	6.01136e-008
		2871.09	6.01136e-008	2871.09	6.01136e-008
				2871.09	6.01136e-008
		2872.56	1.86721e-006	2872.56	8.09759e-007
		2872.56	8.09759e-007	2872.56	8.09759e-007
				2872.56	8.09759e-007
				2874.02	1.51425e-006
				2874.02	1.51425e-006
				2874.02	1.51425e-006
				2875.49	1.07257e-006
				2875.49	1.07257e-006
				2875.49	1.07257e-006
				2876.95	4.62458e-007
				2876.95	4.62458e-007
				2876.95	4.62458e-007
				2878.42	1.31154e-006
				2878.42	1.31154e-006
				2878.42	1.31154e-006
				2879.88	1.43317e-006
				2879.88	1.43317e-006
				2879.88	1.43317e-006
				2881.35	1.29387e-006
				2881.35	1.29387e-006
				2881.35	1.29387e-006
		2882.81	1.32918e-006	2882.81	6.19036e-007
		2882.81	6.19036e-007	2882.81	6.19036e-007
				2882.81	6.19036e-007
				2884.28	1.17584e-006
				2884.28	1.17584e-006
				2884.28	1.17584e-006
				2885.74	2.44474e-006
				2885.74	2.44474e-006
				2885.74	2.44474e-006
				2887.21	9.69702e-007
				2887.21	9.69702e-007
				2887.21	9.69702e-007
				2888.67	8.68845e-007
				2888.67	8.68845e-007
				2888.67	8.68845e-007
		2890.14	1.26138e-006	2890.14	1.23151e-006
		2890.14	1.23151e-006	2890.14	1.23151e-006
				2890.14	1.23151e-006
				2891.6	7.90874e-007
				2891.6	7.90874e-007
				2891.6	7.90874e-007
		2893.07	1.31959e-006	2893.07	9.49097e-007
		2893.07	9.49097e-007	2893.07	9.49097e-007
				2893.07	9.49097e-007
				2894.53	1.26778e-006
				2894.53	1.26778e-006
				2894.53	1.26778e-006
				2896	1.18322e-006
				2896	1.18322e-006
				2896	1.18322e-006
				2897.46	1.17326e-006
				2897.46	1.17326e-006
				2897.46	1.17326e-006
		2898.93	1.83526e-006	2898.93	5.16518e-007
		2898.93	5.16518e-007	2898.93	5.16518e-007
				2898.93	5.16518e-007
		2900.39	1.17744e-006	2900.39	6.34614e-007
		2900.39	6.34614e-007	2900.39	6.34614e-007
				2900.39	6.34614e-007
				2901.86	2.30557e-006
				2901.86	2.30557e-006
				2901.86	2.30557e-006
				2903.32	1.61452e-006
				2903.32	1.61452e-006
				2903.32	1.61452e-006
		2904.79	8.06087e-007	2904.79	6.68e-007
		2904.79	6.68e-007	2904.79	6.68e-007
				2904.79	6.68e-007
				2906.25	1.12639e-006
				2906.25	1.12639e-006
				2906.25	1.12639e-006
				2907.71	1.53194e-006
				2907.71	1.53194e-006
				2907.71	1.53194e-006
				2909.18	1.54921e-006
				2909.18	1.54921e-006
				2909.18	1.54921e-006
				2910.64	2.19393e-006
				2910.64	2.19393e-006
				2910.64	2.19393e-006
		2912.11	1.28451e-006	2912.11	1.26672e-006
		2912.11	1.26672e-006	2912.11	1.26672e-006
				2912.11	1.26672e-006
				2913.57	9.47456e-007
				2913.57	9.47456e-007
				2913.57	9.47456e-007
				2915.04	1.359e-006
				2915.04	1.359e-006
				2915.04	1.359e-006
				2916.5	1.0743e-006
				2916.5	1.0743e-006
				2916.5	1.0743e-006
				2917.97	1.99373e-006
				2917.97	1.99373e-006
				2917.97	1.99373e-006
				2919.43	1.26777e-006
				2919.43	1.26777e-006
				2919.43	1.26777e-006
				2920.9	1.41867e-006
				2920.9	1.41867e-006
				2920.9	1.41867e-006
				2922.36	1.64222e-006
				2922.36	1.64222e-006
				2922.36	1.64222e-006
				2923.83	6.12487e-007
				2923.83	6.12487e-007
				2923.83	6.12487e-007
				2925.29	1.35504e-006
				2925.29	1.35504e-006
				2925.29	1.35504e-006
		2926.76	4.58856e-007	2926.76	3.80861e-007
		2926.76	3.80861e-007	2926.76	3.80861e-007
				2926.76	3.80861e-007
				2928.22	1.13126e-006
				2928.22	1.13126e-006
				2928.22	1.13126e-006
				2929.69	1.25461e-006
				2929.69	1.25461e-006
				2929.69	1.25461e-006
				2931.15	1.39078e-006
				2931.15	1.39078e-006
				2931.15	1.39078e-006
				2932.62	1.91555e-006
				2932.62	1.91555e-006
				2932.62	1.91555e-006
				2934.08	1.08347e-006
				2934.08	1.08347e-006
				2934.08	1.08347e-006
				2935.55	1.58538e-006
				2935.55	1.58538e-006
				2935.55	1.58538e-006
				2937.01	2.03201e-006
				2937.01	2.03201e-006
				2937.01	2.03201e-006
				2938.48	1.08784e-006
				2938.48	1.08784e-006
				2938.48	1.08784e-006
		2939.94	9.2648e-007	2939.94	7.41079e-007
		2939.94	7.41079e-007	2939.94	7.41079e-007
				2939.94	7.41079e-007
		2941.41	1.52227e-006	2941.41	1.30618e-006
		2941.41	1.30618e-006	2941.41	1.30618e-006
				2941.41	1.30618e-006
		2942.87	1.00441e-006	2942.87	5.18663e-007
		2942.87	5.18663e-007	2942.87	5.18663e-007
				2942.87	5.18663e-007
				2944.34	7.83834e-007
				2944.34	7.83834e-007
				2944.34	7.83834e-007
		2945.8	7.28768e-007	2945.8	6.23777e-007
		2945.8	6.23777e-007	2945.8	6.23777e-007
				2945.8	6.23777e-007
				2947.27	1.37144e-006
				2947.27	1.37144e-006
				2947.27	1.37144e-006
				2948.73	1.37918e-006
				2948.73	1.37918e-006
				2948.73	1.37918e-006
		2950.2	4.85447e-007	2950.2	1.58536e-007
		2950.2	1.58536e-007	2950.2	1.58536e-007
				2950.2	1.58536e-007
		2951.66	5.01246e-007	2951.66	3.30334e-007
		2951.66	3.30334e-007	2951.66	3.30334e-007
				2951.66	3.30334e-007
				2953.13	1.56949e-006
				2953.13	1.56949e-006
				2953.13	1.56949e-006
				2954.59	1.19199e-006
				2954.59	1.19199e-006
				2954.59	1.19199e-006
		2956.05	6.07587e-007	2956.05	2.59866e-007
		2956.05	2.59866e-007	2956.05	2.59866e-007
				2956.05	2.59866e-007
		2957.52	1.10843e-006	2957.52	5.97745e-007
		2957.52	5.97745e-007	2957.52	5.97745e-007
				2957.52	5.97745e-007
		2958.98	1.63029e-006	2958.98	1.29471e-006
		2958.98	1.29471e-006	2958.98	1.29471e-006
				2958.98	1.29471e-006
				2960.45	1.91876e-006
				2960.45	1.91876e-006
				2960.45	1.91876e-006
				2961.91	1.17751e-006
				2961.91	1.17751e-006
				2961.91	1.17751e-006
				2963.38	1.52572e-006
				2963.38	1.52572e-006
				2963.38	1.52572e-006
		2964.84	1.25869e-006	2964.84	4.34635e-007
		2964.84	4.34635e-007	2964.84	4.34635e-007
				2964.84	4.34635e-007
		2966.31	9.21165e-007	2966.31	2.69542e-007
		2966.31	2.69542e-007	2966.31	2.69542e-007
				2966.31	2.69542e-007
				2967.77	1.20417e-006
				2967.77	1.20417e-006
				2967.77	1.20417e-006
				2969.24	8.2028e-007
				2969.24	8.2028e-007
				2969.24	8.2028e-007
		2970.7	8.04861e-007	2970.7	7.14907e-007
		2970.7	7.14907e-007	2970.7	7.14907e-007
				2970.7	7.14907e-007
				2972.17	1.12965e-006
				2972.17	1.12965e-006
				2972.17	1.12965e-006
				2973.63	8.20112e-007
				2973.63	8.20112e-007
				2973.63	8.20112e-007
				2975.1	1.608e-006
				2975.1	1.608e-006
				2975.1	1.608e-006
				2976.56	1.69174e-006
				2976.56	1.69174e-006
				2976.56	1.69174e-006
		2978.03	1.16777e-006	2978.03	5.5793e-007
		2978.03	5.5793e-007	2978.03	5.5793e-007
				2978.03	5.5793e-007
				2979.49	7.58313e-007
				2979.49	7.58313e-007
				2979.49	7.58313e-007
				2980.96	1.2482e-006
				2980.96	1.2482e-006
				2980.96	1.2482e-006
		2982.42	1.13837e-006	2982.42	6.66995e-007
		2982.42	6.66995e-007	2982.42	6.66995e-007
				2982.42	6.66995e-007
				2983.89	6.4935e-007
				2983.89	6.4935e-007
				2983.89	6.4935e-007
		2985.35	1.04301e-006	2985.35	5.35673e-007
		2985.35	5.35673e-007	2985.35	5.35673e-007
				2985.35	5.35673e-007
				2986.82	9.7681e-007
				2986.82	9.7681e-007
				2986.82	9.7681e-007
				2988.28	1.90082e-006
				2988.28	1.90082e-006
				2988.28	1.90082e-006
				2989.75	1.50541e-006
				2989.75	1.50541e-006
				2989.75	1.50541e-006
				2991.21	9.61999e-007
				2991.21	9.61999e-007
				2991.21	9.61999e-007
		2992.68	7.38814e-007	2992.68	4.13059e-007
		2992.68	4.13059e-007	2992.68	4.13059e-007
				2992.68	4.13059e-007
				2994.14	1.01152e-006
				2994.14	1.01152e-006
				2994.14	1.01152e-006
				2995.61	1.01402e-006
				2995.61	1.01402e-006
				2995.61	1.01402e-006
				2997.07	3.70193e-007
				2997.07	3.70193e-007
				2997.07	3.70193e-007
		2998.54	8.33923e-007	2998.54	1.11165e-007
		2998.54	1.11165e-007	2998.54	1.11165e-007
				2998.54	1.11165e-007
