"Spectrum X(f) of voice coil displacement"					
"Signal lines"		"Noise + Distortions"		"Noise floor"	
"Frequency [Hz]"	"[mm]"	"Frequency [Hz]"	"[mm]"	"Frequency [Hz]"	"[mm]"
1.46484	0.0132247			1.46484	0.00163754
1.46484	0.00163754			1.46484	0.00163754
				1.46484	0.00163754
2.92969	0.0124861			2.92969	0.000432889
2.92969	0.000432889			2.92969	0.000432889
				2.92969	0.000432889
4.39453	0.0084506			4.39453	6.24088e-005
4.39453	6.24088e-005			4.39453	6.24088e-005
				4.39453	6.24088e-005
5.85938	0.00917876			5.85938	0.000425218
5.85938	0.000425218			5.85938	0.000425218
				5.85938	0.000425218
7.32422	0.00943768			7.32422	0.000434555
7.32422	0.000434555			7.32422	0.000434555
				7.32422	0.000434555
8.78906	0.00960428			8.78906	0.000355781
8.78906	0.000355781			8.78906	0.000355781
				8.78906	0.000355781
10.2539	0.0100415			10.2539	0.000178591
10.2539	0.000178591			10.2539	0.000178591
				10.2539	0.000178591
11.7188	0.00920409			11.7188	0.000275567
11.7188	0.000275567			11.7188	0.000275567
				11.7188	0.000275567
13.1836	0.00890107			13.1836	0.000254709
13.1836	0.000254709			13.1836	0.000254709
				13.1836	0.000254709
14.6484	0.00881985			14.6484	0.000459361
14.6484	0.000459361			14.6484	0.000459361
				14.6484	0.000459361
16.1133	0.0088237			16.1133	0.000101129
16.1133	0.000101129			16.1133	0.000101129
				16.1133	0.000101129
17.5781	0.00869106			17.5781	0.000197975
17.5781	0.000197975			17.5781	0.000197975
				17.5781	0.000197975
19.043	0.00834469			19.043	8.48669e-005
19.043	8.48669e-005			19.043	8.48669e-005
				19.043	8.48669e-005
20.5078	0.00833746			20.5078	0.000185798
20.5078	0.000185798			20.5078	0.000185798
				20.5078	0.000185798
21.9727	0.00803237			21.9727	0.000134072
21.9727	0.000134072			21.9727	0.000134072
				21.9727	0.000134072
23.4375	0.00774329			23.4375	0.000142515
23.4375	0.000142515			23.4375	0.000142515
				23.4375	0.000142515
24.9023	0.00752049			24.9023	3.07752e-005
24.9023	3.07752e-005			24.9023	3.07752e-005
				24.9023	3.07752e-005
26.3672	0.00733468			26.3672	0.000182438
26.3672	0.000182438			26.3672	0.000182438
				26.3672	0.000182438
27.832	0.00727482			27.832	0.000200553
27.832	0.000200553			27.832	0.000200553
				27.832	0.000200553
29.2969	0.00704359			29.2969	0.000161459
29.2969	0.000161459			29.2969	0.000161459
				29.2969	0.000161459
30.7617	0.00670639			30.7617	7.21e-005
30.7617	7.21e-005			30.7617	7.21e-005
				30.7617	7.21e-005
32.2266	0.00653242			32.2266	4.93898e-005
32.2266	4.93898e-005			32.2266	4.93898e-005
				32.2266	4.93898e-005
33.6914	0.00641874			33.6914	0.000145026
33.6914	0.000145026			33.6914	0.000145026
				33.6914	0.000145026
35.1563	0.00634855			35.1563	0.000141221
35.1563	0.000141221			35.1563	0.000141221
				35.1563	0.000141221
36.6211	0.00604194			36.6211	5.40362e-005
36.6211	5.40362e-005			36.6211	5.40362e-005
				36.6211	5.40362e-005
38.0859	0.00599139			38.0859	0.000247306
38.0859	0.000247306			38.0859	0.000247306
				38.0859	0.000247306
39.5508	0.00584466			39.5508	8.91752e-005
39.5508	8.91752e-005			39.5508	8.91752e-005
				39.5508	8.91752e-005
41.0156	0.00576585			41.0156	0.000132116
41.0156	0.000132116			41.0156	0.000132116
				41.0156	0.000132116
42.4805	0.00556167			42.4805	1.39013e-005
42.4805	1.39013e-005			42.4805	1.39013e-005
				42.4805	1.39013e-005
43.9453	0.00545207			43.9453	7.44592e-005
43.9453	7.44592e-005			43.9453	7.44592e-005
				43.9453	7.44592e-005
45.4102	0.00523436			45.4102	1.93237e-005
45.4102	1.93237e-005			45.4102	1.93237e-005
				45.4102	1.93237e-005
46.875	0.00516217			46.875	8.93001e-005
46.875	8.93001e-005			46.875	8.93001e-005
				46.875	8.93001e-005
48.3398	0.00486937			48.3398	4.44594e-005
48.3398	4.44594e-005			48.3398	4.44594e-005
				48.3398	4.44594e-005
49.8047	0.00487755			49.8047	9.79807e-005
49.8047	9.79807e-005			49.8047	9.79807e-005
				49.8047	9.79807e-005
51.2695	0.00472169			51.2695	3.90148e-005
51.2695	3.90148e-005			51.2695	3.90148e-005
				51.2695	3.90148e-005
52.7344	0.00461638			52.7344	0.000120415
52.7344	0.000120415			52.7344	0.000120415
				52.7344	0.000120415
54.1992	0.00443641			54.1992	6.5535e-005
54.1992	6.5535e-005			54.1992	6.5535e-005
				54.1992	6.5535e-005
55.6641	0.0044352			55.6641	0.000182663
55.6641	0.000182663			55.6641	0.000182663
				55.6641	0.000182663
57.1289	0.00422921			57.1289	0.000114119
57.1289	0.000114119			57.1289	0.000114119
				57.1289	0.000114119
58.5938	0.00408845			58.5938	7.20372e-005
58.5938	7.20372e-005			58.5938	7.20372e-005
				58.5938	7.20372e-005
60.0586	0.00393139			60.0586	6.69412e-005
60.0586	6.69412e-005			60.0586	6.69412e-005
				60.0586	6.69412e-005
61.5234	0.00389466			61.5234	5.09401e-005
61.5234	5.09401e-005			61.5234	5.09401e-005
				61.5234	5.09401e-005
				62.9883	7.98773e-005
				62.9883	7.98773e-005
				62.9883	7.98773e-005
64.4531	0.00360202			64.4531	0.000120739
64.4531	0.000120739			64.4531	0.000120739
				64.4531	0.000120739
65.918	0.00356656			65.918	8.73955e-005
65.918	8.73955e-005			65.918	8.73955e-005
				65.918	8.73955e-005
67.3828	0.00356148			67.3828	4.25179e-005
67.3828	4.25179e-005			67.3828	4.25179e-005
				67.3828	4.25179e-005
				68.8477	0.000114035
				68.8477	0.000114035
				68.8477	0.000114035
70.3125	0.00327474			70.3125	9.29778e-005
70.3125	9.29778e-005			70.3125	9.29778e-005
				70.3125	9.29778e-005
71.7773	0.0034543			71.7773	0.00028504
71.7773	0.00028504			71.7773	0.00028504
				71.7773	0.00028504
73.2422	0.00318816			73.2422	2.71565e-005
73.2422	2.71565e-005			73.2422	2.71565e-005
				73.2422	2.71565e-005
				74.707	0.000136887
				74.707	0.000136887
				74.707	0.000136887
76.1719	0.00300245			76.1719	4.84962e-005
76.1719	4.84962e-005			76.1719	4.84962e-005
				76.1719	4.84962e-005
77.6367	0.00290135			77.6367	7.38338e-005
77.6367	7.38338e-005			77.6367	7.38338e-005
				77.6367	7.38338e-005
		79.1016	4.21911e-005	79.1016	1.28267e-005
		79.1016	1.28267e-005	79.1016	1.28267e-005
				79.1016	1.28267e-005
80.5664	0.00257131			80.5664	3.88001e-005
80.5664	3.88001e-005			80.5664	3.88001e-005
				80.5664	3.88001e-005
		82.0313	9.98492e-005	82.0313	5.89638e-005
		82.0313	5.89638e-005	82.0313	5.89638e-005
				82.0313	5.89638e-005
83.4961	0.00258077			83.4961	5.22466e-005
83.4961	5.22466e-005			83.4961	5.22466e-005
				83.4961	5.22466e-005
84.9609	0.00240077			84.9609	7.14752e-005
84.9609	7.14752e-005			84.9609	7.14752e-005
				84.9609	7.14752e-005
				86.4258	9.00081e-005
				86.4258	9.00081e-005
				86.4258	9.00081e-005
87.8906	0.00244516			87.8906	0.000105485
87.8906	0.000105485			87.8906	0.000105485
				87.8906	0.000105485
				89.3555	5.81037e-005
				89.3555	5.81037e-005
				89.3555	5.81037e-005
90.8203	0.0023345			90.8203	3.36748e-005
90.8203	3.36748e-005			90.8203	3.36748e-005
				90.8203	3.36748e-005
92.2852	0.00223248			92.2852	9.84859e-005
92.2852	9.84859e-005			92.2852	9.84859e-005
				92.2852	9.84859e-005
				93.75	7.54244e-005
				93.75	7.54244e-005
				93.75	7.54244e-005
95.2148	0.00209614			95.2148	4.94414e-005
95.2148	4.94414e-005			95.2148	4.94414e-005
				95.2148	4.94414e-005
		96.6797	6.17714e-005	96.6797	1.39099e-005
		96.6797	1.39099e-005	96.6797	1.39099e-005
				96.6797	1.39099e-005
98.1445	0.00210892			98.1445	5.80995e-005
98.1445	5.80995e-005			98.1445	5.80995e-005
				98.1445	5.80995e-005
				99.6094	6.80519e-005
				99.6094	6.80519e-005
				99.6094	6.80519e-005
101.074	0.00202233			101.074	9.76064e-005
101.074	9.76064e-005			101.074	9.76064e-005
				101.074	9.76064e-005
				102.539	5.53344e-005
				102.539	5.53344e-005
				102.539	5.53344e-005
104.004	0.00182241			104.004	0.000114322
104.004	0.000114322			104.004	0.000114322
				104.004	0.000114322
		105.469	8.25376e-005	105.469	2.03949e-005
		105.469	2.03949e-005	105.469	2.03949e-005
				105.469	2.03949e-005
106.934	0.0018514			106.934	6.96814e-005
106.934	6.96814e-005			106.934	6.96814e-005
				106.934	6.96814e-005
				108.398	8.93404e-005
				108.398	8.93404e-005
				108.398	8.93404e-005
		109.863	5.37381e-005	109.863	1.1586e-005
		109.863	1.1586e-005	109.863	1.1586e-005
				109.863	1.1586e-005
111.328	0.00174769			111.328	5.39879e-005
111.328	5.39879e-005			111.328	5.39879e-005
				111.328	5.39879e-005
		112.793	4.9541e-005	112.793	4.82562e-005
		112.793	4.82562e-005	112.793	4.82562e-005
				112.793	4.82562e-005
114.258	0.00163863			114.258	9.67136e-005
114.258	9.67136e-005			114.258	9.67136e-005
				114.258	9.67136e-005
		115.723	6.6756e-005	115.723	3.56746e-005
		115.723	3.56746e-005	115.723	3.56746e-005
				115.723	3.56746e-005
117.188	0.00156819			117.188	0.00010776
117.188	0.00010776			117.188	0.00010776
				117.188	0.00010776
		118.652	0.0001043	118.652	4.17781e-005
		118.652	4.17781e-005	118.652	4.17781e-005
				118.652	4.17781e-005
120.117	0.001344			120.117	4.92495e-005
120.117	4.92495e-005			120.117	4.92495e-005
				120.117	4.92495e-005
		121.582	0.000114339	121.582	6.45262e-005
		121.582	6.45262e-005	121.582	6.45262e-005
				121.582	6.45262e-005
		123.047	0.000107568	123.047	1.91954e-005
		123.047	1.91954e-005	123.047	1.91954e-005
				123.047	1.91954e-005
124.512	0.00147589			124.512	2.14142e-005
124.512	2.14142e-005			124.512	2.14142e-005
				124.512	2.14142e-005
		125.977	6.56049e-005	125.977	2.25613e-005
		125.977	2.25613e-005	125.977	2.25613e-005
				125.977	2.25613e-005
127.441	0.00133241			127.441	4.38731e-005
127.441	4.38731e-005			127.441	4.38731e-005
				127.441	4.38731e-005
		128.906	6.42876e-005	128.906	5.94435e-005
		128.906	5.94435e-005	128.906	5.94435e-005
				128.906	5.94435e-005
				130.371	4.22304e-005
				130.371	4.22304e-005
				130.371	4.22304e-005
131.836	0.00120134			131.836	9.07951e-005
131.836	9.07951e-005			131.836	9.07951e-005
				131.836	9.07951e-005
		133.301	0.000111329	133.301	3.63463e-005
		133.301	3.63463e-005	133.301	3.63463e-005
				133.301	3.63463e-005
134.766	0.00122688			134.766	5.2079e-005
134.766	5.2079e-005			134.766	5.2079e-005
				134.766	5.2079e-005
				136.23	5.36297e-005
				136.23	5.36297e-005
				136.23	5.36297e-005
				137.695	9.11065e-005
				137.695	9.11065e-005
				137.695	9.11065e-005
139.16	0.00115258			139.16	6.81181e-005
139.16	6.81181e-005			139.16	6.81181e-005
				139.16	6.81181e-005
				140.625	0.00013866
				140.625	0.00013866
				140.625	0.00013866
				142.09	2.64676e-005
				142.09	2.64676e-005
				142.09	2.64676e-005
143.555	0.000944232			143.555	0.000158255
143.555	0.000158255			143.555	0.000158255
				143.555	0.000158255
				145.02	0.000131788
				145.02	0.000131788
				145.02	0.000131788
				146.484	6.86965e-005
				146.484	6.86965e-005
				146.484	6.86965e-005
147.949	0.00104357			147.949	2.94264e-005
147.949	2.94264e-005			147.949	2.94264e-005
				147.949	2.94264e-005
		149.414	6.54804e-005	149.414	1.00526e-005
		149.414	1.00526e-005	149.414	1.00526e-005
				149.414	1.00526e-005
				150.879	8.32067e-005
				150.879	8.32067e-005
				150.879	8.32067e-005
152.344	0.00099772			152.344	9.51731e-005
152.344	9.51731e-005			152.344	9.51731e-005
				152.344	9.51731e-005
		153.809	4.01916e-005	153.809	1.92491e-005
		153.809	1.92491e-005	153.809	1.92491e-005
				153.809	1.92491e-005
		155.273	9.80193e-005	155.273	9.09827e-005
		155.273	9.09827e-005	155.273	9.09827e-005
				155.273	9.09827e-005
156.738	0.000862409			156.738	4.50743e-006
156.738	4.50743e-006			156.738	4.50743e-006
				156.738	4.50743e-006
				158.203	9.71099e-005
				158.203	9.71099e-005
				158.203	9.71099e-005
		159.668	9.12881e-005	159.668	6.382e-005
		159.668	6.382e-005	159.668	6.382e-005
				159.668	6.382e-005
161.133	0.00087048			161.133	2.20401e-005
161.133	2.20401e-005			161.133	2.20401e-005
				161.133	2.20401e-005
				162.598	4.60602e-005
				162.598	4.60602e-005
				162.598	4.60602e-005
				164.063	5.41206e-005
				164.063	5.41206e-005
				164.063	5.41206e-005
165.527	0.000849318			165.527	7.98715e-005
165.527	7.98715e-005			165.527	7.98715e-005
				165.527	7.98715e-005
				166.992	0.00010841
				166.992	0.00010841
				166.992	0.00010841
		168.457	7.24963e-005	168.457	1.30471e-005
		168.457	1.30471e-005	168.457	1.30471e-005
				168.457	1.30471e-005
169.922	0.000767713			169.922	9.02074e-005
169.922	9.02074e-005			169.922	9.02074e-005
				169.922	9.02074e-005
		171.387	7.16651e-005	171.387	4.05337e-005
		171.387	4.05337e-005	171.387	4.05337e-005
				171.387	4.05337e-005
				172.852	6.9988e-005
				172.852	6.9988e-005
				172.852	6.9988e-005
		174.316	8.93038e-005	174.316	6.01608e-005
		174.316	6.01608e-005	174.316	6.01608e-005
				174.316	6.01608e-005
175.781	0.000650682			175.781	4.94069e-005
175.781	4.94069e-005			175.781	4.94069e-005
				175.781	4.94069e-005
		177.246	5.95668e-005	177.246	2.28687e-005
		177.246	2.28687e-005	177.246	2.28687e-005
				177.246	2.28687e-005
		178.711	5.68363e-005	178.711	4.91533e-005
		178.711	4.91533e-005	178.711	4.91533e-005
				178.711	4.91533e-005
180.176	0.000704478			180.176	9.57264e-005
180.176	9.57264e-005			180.176	9.57264e-005
				180.176	9.57264e-005
		181.641	0.000105516	181.641	4.47844e-005
		181.641	4.47844e-005	181.641	4.47844e-005
				181.641	4.47844e-005
				183.105	9.21704e-005
				183.105	9.21704e-005
				183.105	9.21704e-005
				184.57	0.000118458
				184.57	0.000118458
				184.57	0.000118458
186.035	0.000673437			186.035	4.57702e-005
186.035	4.57702e-005			186.035	4.57702e-005
				186.035	4.57702e-005
		187.5	7.44445e-005	187.5	5.4324e-005
		187.5	5.4324e-005	187.5	5.4324e-005
				187.5	5.4324e-005
				188.965	0.000109942
				188.965	0.000109942
				188.965	0.000109942
				190.43	7.22248e-005
				190.43	7.22248e-005
				190.43	7.22248e-005
191.895	0.000684471			191.895	7.72167e-005
191.895	7.72167e-005			191.895	7.72167e-005
				191.895	7.72167e-005
		193.359	8.00896e-005	193.359	3.82306e-005
		193.359	3.82306e-005	193.359	3.82306e-005
				193.359	3.82306e-005
		194.824	7.47718e-005	194.824	5.49507e-005
		194.824	5.49507e-005	194.824	5.49507e-005
				194.824	5.49507e-005
		196.289	0.0001067	196.289	6.08902e-005
		196.289	6.08902e-005	196.289	6.08902e-005
				196.289	6.08902e-005
197.754	0.000577465			197.754	6.63308e-005
197.754	6.63308e-005			197.754	6.63308e-005
				197.754	6.63308e-005
		199.219	4.30589e-005	199.219	3.17633e-005
		199.219	3.17633e-005	199.219	3.17633e-005
				199.219	3.17633e-005
				200.684	8.97309e-005
				200.684	8.97309e-005
				200.684	8.97309e-005
202.148	0.000574376			202.148	4.99996e-005
202.148	4.99996e-005			202.148	4.99996e-005
				202.148	4.99996e-005
				203.613	7.79224e-005
				203.613	7.79224e-005
				203.613	7.79224e-005
				205.078	0.000118514
				205.078	0.000118514
				205.078	0.000118514
				206.543	6.29528e-005
				206.543	6.29528e-005
				206.543	6.29528e-005
		208.008	0.000113039	208.008	5.71475e-005
		208.008	5.71475e-005	208.008	5.71475e-005
				208.008	5.71475e-005
209.473	0.000507747			209.473	0.000113384
209.473	0.000113384			209.473	0.000113384
				209.473	0.000113384
		210.938	5.8697e-005	210.938	5.38557e-005
		210.938	5.38557e-005	210.938	5.38557e-005
				210.938	5.38557e-005
				212.402	7.88308e-005
				212.402	7.88308e-005
				212.402	7.88308e-005
		213.867	7.10037e-005	213.867	3.45614e-005
		213.867	3.45614e-005	213.867	3.45614e-005
				213.867	3.45614e-005
215.332	0.000520936			215.332	4.44257e-005
215.332	4.44257e-005			215.332	4.44257e-005
				215.332	4.44257e-005
		216.797	0.000101273	216.797	4.3035e-005
		216.797	4.3035e-005	216.797	4.3035e-005
				216.797	4.3035e-005
		218.262	7.32451e-005	218.262	3.53549e-005
		218.262	3.53549e-005	218.262	3.53549e-005
				218.262	3.53549e-005
				219.727	5.36004e-005
				219.727	5.36004e-005
				219.727	5.36004e-005
221.191	0.000401088			221.191	8.15587e-006
221.191	8.15587e-006			221.191	8.15587e-006
				221.191	8.15587e-006
				222.656	9.13485e-005
				222.656	9.13485e-005
				222.656	9.13485e-005
				224.121	4.36538e-005
				224.121	4.36538e-005
				224.121	4.36538e-005
				225.586	8.23141e-005
				225.586	8.23141e-005
				225.586	8.23141e-005
227.051	0.000485025			227.051	7.56435e-005
227.051	7.56435e-005			227.051	7.56435e-005
				227.051	7.56435e-005
				228.516	6.79566e-005
				228.516	6.79566e-005
				228.516	6.79566e-005
		229.98	6.45477e-005	229.98	3.48398e-005
		229.98	3.48398e-005	229.98	3.48398e-005
				229.98	3.48398e-005
				231.445	4.4264e-005
				231.445	4.4264e-005
				231.445	4.4264e-005
		232.91	7.1811e-005	232.91	6.53649e-005
		232.91	6.53649e-005	232.91	6.53649e-005
				232.91	6.53649e-005
234.375	0.000482687			234.375	4.35385e-005
234.375	4.35385e-005			234.375	4.35385e-005
				234.375	4.35385e-005
		235.84	6.11613e-005	235.84	3.75503e-005
		235.84	3.75503e-005	235.84	3.75503e-005
				235.84	3.75503e-005
		237.305	7.57111e-005	237.305	4.75784e-005
		237.305	4.75784e-005	237.305	4.75784e-005
				237.305	4.75784e-005
		238.77	4.4172e-005	238.77	3.49101e-005
		238.77	3.49101e-005	238.77	3.49101e-005
				238.77	3.49101e-005
				240.234	5.88954e-005
				240.234	5.88954e-005
				240.234	5.88954e-005
241.699	0.000376397			241.699	7.03757e-005
241.699	7.03757e-005			241.699	7.03757e-005
				241.699	7.03757e-005
				243.164	9.13006e-005
				243.164	9.13006e-005
				243.164	9.13006e-005
				244.629	4.85423e-005
				244.629	4.85423e-005
				244.629	4.85423e-005
				246.094	4.46374e-005
				246.094	4.46374e-005
				246.094	4.46374e-005
				247.559	6.69812e-005
				247.559	6.69812e-005
				247.559	6.69812e-005
249.023	0.000368616			249.023	7.97023e-005
249.023	7.97023e-005			249.023	7.97023e-005
				249.023	7.97023e-005
				250.488	6.27235e-005
				250.488	6.27235e-005
				250.488	6.27235e-005
				251.953	3.50998e-005
				251.953	3.50998e-005
				251.953	3.50998e-005
				253.418	4.49636e-005
				253.418	4.49636e-005
				253.418	4.49636e-005
254.883	0.000317538			254.883	4.66053e-005
254.883	4.66053e-005			254.883	4.66053e-005
				254.883	4.66053e-005
				256.348	8.34734e-005
				256.348	8.34734e-005
				256.348	8.34734e-005
		257.813	3.30574e-005	257.813	2.60386e-005
		257.813	2.60386e-005	257.813	2.60386e-005
				257.813	2.60386e-005
				259.277	7.64758e-005
				259.277	7.64758e-005
				259.277	7.64758e-005
		260.742	4.10048e-005	260.742	2.44549e-005
		260.742	2.44549e-005	260.742	2.44549e-005
				260.742	2.44549e-005
				262.207	2.83539e-005
				262.207	2.83539e-005
				262.207	2.83539e-005
263.672	0.00030682			263.672	3.67749e-005
263.672	3.67749e-005			263.672	3.67749e-005
				263.672	3.67749e-005
				265.137	7.17002e-005
				265.137	7.17002e-005
				265.137	7.17002e-005
				266.602	9.8392e-005
				266.602	9.8392e-005
				266.602	9.8392e-005
				268.066	0.000106175
				268.066	0.000106175
				268.066	0.000106175
		269.531	8.56632e-005	269.531	7.2829e-005
		269.531	7.2829e-005	269.531	7.2829e-005
				269.531	7.2829e-005
270.996	0.000346164			270.996	1.13666e-005
270.996	1.13666e-005			270.996	1.13666e-005
				270.996	1.13666e-005
		272.461	8.67439e-005	272.461	1.34095e-005
		272.461	1.34095e-005	272.461	1.34095e-005
				272.461	1.34095e-005
		273.926	6.83832e-005	273.926	3.21462e-005
		273.926	3.21462e-005	273.926	3.21462e-005
				273.926	3.21462e-005
		275.391	7.91794e-005	275.391	7.46918e-005
		275.391	7.46918e-005	275.391	7.46918e-005
				275.391	7.46918e-005
		276.855	7.13186e-005	276.855	1.88238e-005
		276.855	1.88238e-005	276.855	1.88238e-005
				276.855	1.88238e-005
278.32	0.000326323			278.32	2.87821e-005
278.32	2.87821e-005			278.32	2.87821e-005
				278.32	2.87821e-005
		279.785	8.96136e-005	279.785	5.49858e-005
		279.785	5.49858e-005	279.785	5.49858e-005
				279.785	5.49858e-005
				281.25	8.80659e-005
				281.25	8.80659e-005
				281.25	8.80659e-005
				282.715	8.42671e-005
				282.715	8.42671e-005
				282.715	8.42671e-005
				284.18	0.00010547
				284.18	0.00010547
				284.18	0.00010547
		285.645	0.000114641	285.645	2.46606e-005
		285.645	2.46606e-005	285.645	2.46606e-005
				285.645	2.46606e-005
287.109	0.000246183			287.109	0.000107789
287.109	0.000107789			287.109	0.000107789
				287.109	0.000107789
		288.574	9.43516e-005	288.574	7.33315e-005
		288.574	7.33315e-005	288.574	7.33315e-005
				288.574	7.33315e-005
				290.039	6.72693e-005
				290.039	6.72693e-005
				290.039	6.72693e-005
		291.504	2.94501e-005	291.504	2.61137e-005
		291.504	2.61137e-005	291.504	2.61137e-005
				291.504	2.61137e-005
		292.969	9.25273e-005	292.969	3.63413e-005
		292.969	3.63413e-005	292.969	3.63413e-005
				292.969	3.63413e-005
		294.434	3.99755e-005	294.434	3.79938e-005
		294.434	3.79938e-005	294.434	3.79938e-005
				294.434	3.79938e-005
295.898	0.000228494			295.898	9.19644e-005
295.898	9.19644e-005			295.898	9.19644e-005
				295.898	9.19644e-005
		297.363	5.0891e-005	297.363	4.76277e-005
		297.363	4.76277e-005	297.363	4.76277e-005
				297.363	4.76277e-005
				298.828	7.02003e-005
				298.828	7.02003e-005
				298.828	7.02003e-005
		300.293	8.89902e-005	300.293	4.98866e-005
		300.293	4.98866e-005	300.293	4.98866e-005
				300.293	4.98866e-005
				301.758	6.28918e-005
				301.758	6.28918e-005
				301.758	6.28918e-005
303.223	0.000236741			303.223	5.97293e-005
303.223	5.97293e-005			303.223	5.97293e-005
				303.223	5.97293e-005
		304.688	3.31825e-005	304.688	1.81859e-005
		304.688	1.81859e-005	304.688	1.81859e-005
				304.688	1.81859e-005
				306.152	5.17248e-005
				306.152	5.17248e-005
				306.152	5.17248e-005
		307.617	9.42793e-005	307.617	3.03576e-005
		307.617	3.03576e-005	307.617	3.03576e-005
				307.617	3.03576e-005
		309.082	3.03026e-005	309.082	9.83201e-006
		309.082	9.83201e-006	309.082	9.83201e-006
				309.082	9.83201e-006
				310.547	8.25414e-005
				310.547	8.25414e-005
				310.547	8.25414e-005
		312.012	4.91143e-005	312.012	2.33326e-005
		312.012	2.33326e-005	312.012	2.33326e-005
				312.012	2.33326e-005
313.477	0.000170639			313.477	3.69877e-005
313.477	3.69877e-005			313.477	3.69877e-005
				313.477	3.69877e-005
		314.941	0.000112358	314.941	1.45699e-005
		314.941	1.45699e-005	314.941	1.45699e-005
				314.941	1.45699e-005
		316.406	7.10264e-005	316.406	5.1126e-005
		316.406	5.1126e-005	316.406	5.1126e-005
				316.406	5.1126e-005
		317.871	9.74557e-005	317.871	5.31662e-005
		317.871	5.31662e-005	317.871	5.31662e-005
				317.871	5.31662e-005
		319.336	5.66136e-005	319.336	2.41534e-005
		319.336	2.41534e-005	319.336	2.41534e-005
				319.336	2.41534e-005
		320.801	0.000103173	320.801	5.06878e-005
		320.801	5.06878e-005	320.801	5.06878e-005
				320.801	5.06878e-005
322.266	0.000110292			322.266	1.92291e-005
322.266	1.92291e-005			322.266	1.92291e-005
				322.266	1.92291e-005
				323.73	5.20229e-005
				323.73	5.20229e-005
				323.73	5.20229e-005
		325.195	6.71707e-005	325.195	5.5155e-005
		325.195	5.5155e-005	325.195	5.5155e-005
				325.195	5.5155e-005
		326.66	9.58873e-005	326.66	4.21646e-005
		326.66	4.21646e-005	326.66	4.21646e-005
				326.66	4.21646e-005
		328.125	7.72111e-005	328.125	2.73053e-005
		328.125	2.73053e-005	328.125	2.73053e-005
				328.125	2.73053e-005
				329.59	5.99947e-005
				329.59	5.99947e-005
				329.59	5.99947e-005
331.055	0.000210843			331.055	1.68628e-005
331.055	1.68628e-005			331.055	1.68628e-005
				331.055	1.68628e-005
		332.52	4.93913e-005	332.52	7.46817e-006
		332.52	7.46817e-006	332.52	7.46817e-006
				332.52	7.46817e-006
				333.984	6.69169e-005
				333.984	6.69169e-005
				333.984	6.69169e-005
		335.449	4.89604e-005	335.449	2.69121e-005
		335.449	2.69121e-005	335.449	2.69121e-005
				335.449	2.69121e-005
				336.914	8.60122e-005
				336.914	8.60122e-005
				336.914	8.60122e-005
		338.379	7.74942e-005	338.379	2.94261e-005
		338.379	2.94261e-005	338.379	2.94261e-005
				338.379	2.94261e-005
				339.844	0.000111053
				339.844	0.000111053
				339.844	0.000111053
341.309	0.000212453			341.309	8.01257e-005
341.309	8.01257e-005			341.309	8.01257e-005
				341.309	8.01257e-005
				342.773	6.21769e-005
				342.773	6.21769e-005
				342.773	6.21769e-005
		344.238	6.713e-005	344.238	4.42133e-005
		344.238	4.42133e-005	344.238	4.42133e-005
				344.238	4.42133e-005
				345.703	9.77043e-005
				345.703	9.77043e-005
				345.703	9.77043e-005
				347.168	0.000146059
				347.168	0.000146059
				347.168	0.000146059
				348.633	3.10599e-005
				348.633	3.10599e-005
				348.633	3.10599e-005
		350.098	9.57258e-005	350.098	7.20006e-005
		350.098	7.20006e-005	350.098	7.20006e-005
				350.098	7.20006e-005
351.563	0.000202952			351.563	6.16108e-005
351.563	6.16108e-005			351.563	6.16108e-005
				351.563	6.16108e-005
		353.027	4.54312e-005	353.027	3.98075e-005
		353.027	3.98075e-005	353.027	3.98075e-005
				353.027	3.98075e-005
		354.492	6.77784e-005	354.492	2.03697e-005
		354.492	2.03697e-005	354.492	2.03697e-005
				354.492	2.03697e-005
		355.957	0.000105827	355.957	5.69215e-005
		355.957	5.69215e-005	355.957	5.69215e-005
				355.957	5.69215e-005
		357.422	5.98816e-005	357.422	5.8955e-005
		357.422	5.8955e-005	357.422	5.8955e-005
				357.422	5.8955e-005
		358.887	9.60579e-005	358.887	4.08642e-005
		358.887	4.08642e-005	358.887	4.08642e-005
				358.887	4.08642e-005
		360.352	4.07538e-005	360.352	3.23669e-005
		360.352	3.23669e-005	360.352	3.23669e-005
				360.352	3.23669e-005
361.816	0.000129406			361.816	2.85428e-005
361.816	2.85428e-005			361.816	2.85428e-005
				361.816	2.85428e-005
		363.281	8.86842e-005	363.281	2.52578e-005
		363.281	2.52578e-005	363.281	2.52578e-005
				363.281	2.52578e-005
				364.746	7.28178e-005
				364.746	7.28178e-005
				364.746	7.28178e-005
		366.211	3.62957e-005	366.211	1.18319e-005
		366.211	1.18319e-005	366.211	1.18319e-005
				366.211	1.18319e-005
		367.676	2.57492e-005	367.676	1.74663e-005
		367.676	1.74663e-005	367.676	1.74663e-005
				367.676	1.74663e-005
				369.141	5.47194e-005
				369.141	5.47194e-005
				369.141	5.47194e-005
		370.605	7.39693e-005	370.605	1.41183e-005
		370.605	1.41183e-005	370.605	1.41183e-005
				370.605	1.41183e-005
372.07	0.000177743			372.07	3.54896e-005
372.07	3.54896e-005			372.07	3.54896e-005
				372.07	3.54896e-005
				373.535	0.000125434
				373.535	0.000125434
				373.535	0.000125434
				375	2.84533e-005
				375	2.84533e-005
				375	2.84533e-005
				376.465	6.36768e-005
				376.465	6.36768e-005
				376.465	6.36768e-005
				377.93	4.84202e-005
				377.93	4.84202e-005
				377.93	4.84202e-005
				379.395	7.05395e-005
				379.395	7.05395e-005
				379.395	7.05395e-005
				380.859	4.20627e-005
				380.859	4.20627e-005
				380.859	4.20627e-005
382.324	0.000148601			382.324	9.46126e-005
382.324	9.46126e-005			382.324	9.46126e-005
				382.324	9.46126e-005
		383.789	9.95702e-005	383.789	8.69329e-005
		383.789	8.69329e-005	383.789	8.69329e-005
				383.789	8.69329e-005
				385.254	6.32397e-005
				385.254	6.32397e-005
				385.254	6.32397e-005
				386.719	0.000101152
				386.719	0.000101152
				386.719	0.000101152
		388.184	0.000120032	388.184	0.000111012
		388.184	0.000111012	388.184	0.000111012
				388.184	0.000111012
		389.648	9.14561e-005	389.648	6.57444e-005
		389.648	6.57444e-005	389.648	6.57444e-005
				389.648	6.57444e-005
		391.113	0.000123477	391.113	2.59441e-005
		391.113	2.59441e-005	391.113	2.59441e-005
				391.113	2.59441e-005
				392.578	3.72125e-005
				392.578	3.72125e-005
				392.578	3.72125e-005
394.043	0.000142048			394.043	3.57081e-005
394.043	3.57081e-005			394.043	3.57081e-005
				394.043	3.57081e-005
		395.508	5.41409e-005	395.508	5.29243e-005
		395.508	5.29243e-005	395.508	5.29243e-005
				395.508	5.29243e-005
		396.973	6.95393e-005	396.973	3.06073e-005
		396.973	3.06073e-005	396.973	3.06073e-005
				396.973	3.06073e-005
				398.438	0.000136443
				398.438	0.000136443
				398.438	0.000136443
		399.902	7.0684e-005	399.902	4.65673e-005
		399.902	4.65673e-005	399.902	4.65673e-005
				399.902	4.65673e-005
		401.367	7.04794e-005	401.367	4.43919e-005
		401.367	4.43919e-005	401.367	4.43919e-005
				401.367	4.43919e-005
				402.832	7.89283e-005
				402.832	7.89283e-005
				402.832	7.89283e-005
		404.297	0.000110337	404.297	6.70426e-005
		404.297	6.70426e-005	404.297	6.70426e-005
				404.297	6.70426e-005
405.762	0.000127258			405.762	1.63185e-005
405.762	1.63185e-005			405.762	1.63185e-005
				405.762	1.63185e-005
		407.227	5.95913e-005	407.227	1.93374e-005
		407.227	1.93374e-005	407.227	1.93374e-005
				407.227	1.93374e-005
				408.691	5.20964e-005
				408.691	5.20964e-005
				408.691	5.20964e-005
		410.156	0.000110563	410.156	5.39208e-005
		410.156	5.39208e-005	410.156	5.39208e-005
				410.156	5.39208e-005
				411.621	2.69871e-005
				411.621	2.69871e-005
				411.621	2.69871e-005
				413.086	5.71803e-005
				413.086	5.71803e-005
				413.086	5.71803e-005
				414.551	7.65318e-005
				414.551	7.65318e-005
				414.551	7.65318e-005
				416.016	4.99745e-005
				416.016	4.99745e-005
				416.016	4.99745e-005
417.48	0.000146995			417.48	4.2146e-005
417.48	4.2146e-005			417.48	4.2146e-005
				417.48	4.2146e-005
				418.945	7.66735e-005
				418.945	7.66735e-005
				418.945	7.66735e-005
				420.41	7.0594e-005
				420.41	7.0594e-005
				420.41	7.0594e-005
		421.875	9.02012e-005	421.875	3.64434e-005
		421.875	3.64434e-005	421.875	3.64434e-005
				421.875	3.64434e-005
		423.34	6.60382e-005	423.34	2.64671e-005
		423.34	2.64671e-005	423.34	2.64671e-005
				423.34	2.64671e-005
				424.805	7.324e-005
				424.805	7.324e-005
				424.805	7.324e-005
		426.27	4.49572e-005	426.27	3.76128e-005
		426.27	3.76128e-005	426.27	3.76128e-005
				426.27	3.76128e-005
				427.734	5.54519e-005
				427.734	5.54519e-005
				427.734	5.54519e-005
429.199	0.000125735			429.199	3.29664e-005
429.199	3.29664e-005			429.199	3.29664e-005
				429.199	3.29664e-005
				430.664	6.64162e-005
				430.664	6.64162e-005
				430.664	6.64162e-005
				432.129	1.56728e-005
				432.129	1.56728e-005
				432.129	1.56728e-005
				433.594	8.47775e-005
				433.594	8.47775e-005
				433.594	8.47775e-005
		435.059	4.26227e-005	435.059	2.68053e-005
		435.059	2.68053e-005	435.059	2.68053e-005
				435.059	2.68053e-005
				436.523	9.47681e-005
				436.523	9.47681e-005
				436.523	9.47681e-005
		437.988	8.17404e-005	437.988	3.5661e-005
		437.988	3.5661e-005	437.988	3.5661e-005
				437.988	3.5661e-005
				439.453	3.42976e-005
				439.453	3.42976e-005
				439.453	3.42976e-005
		440.918	0.000106027	440.918	7.28257e-005
		440.918	7.28257e-005	440.918	7.28257e-005
				440.918	7.28257e-005
442.383	0.000152606			442.383	8.7352e-005
442.383	8.7352e-005			442.383	8.7352e-005
				442.383	8.7352e-005
		443.848	5.78805e-005	443.848	4.90743e-005
		443.848	4.90743e-005	443.848	4.90743e-005
				443.848	4.90743e-005
		445.313	5.81587e-005	445.313	6.38461e-006
		445.313	6.38461e-006	445.313	6.38461e-006
				445.313	6.38461e-006
		446.777	4.93388e-005	446.777	3.8882e-005
		446.777	3.8882e-005	446.777	3.8882e-005
				446.777	3.8882e-005
				448.242	2.58035e-005
				448.242	2.58035e-005
				448.242	2.58035e-005
		449.707	3.06072e-005	449.707	1.97934e-005
		449.707	1.97934e-005	449.707	1.97934e-005
				449.707	1.97934e-005
				451.172	5.42685e-005
				451.172	5.42685e-005
				451.172	5.42685e-005
				452.637	7.53195e-005
				452.637	7.53195e-005
				452.637	7.53195e-005
		454.102	7.99427e-005	454.102	1.88026e-005
		454.102	1.88026e-005	454.102	1.88026e-005
				454.102	1.88026e-005
455.566	0.000104752			455.566	5.63457e-005
455.566	5.63457e-005			455.566	5.63457e-005
				455.566	5.63457e-005
				457.031	3.21032e-005
				457.031	3.21032e-005
				457.031	3.21032e-005
				458.496	1.50791e-005
				458.496	1.50791e-005
				458.496	1.50791e-005
		459.961	6.49419e-005	459.961	9.18746e-006
		459.961	9.18746e-006	459.961	9.18746e-006
				459.961	9.18746e-006
		461.426	3.83787e-005	461.426	3.69206e-005
		461.426	3.69206e-005	461.426	3.69206e-005
				461.426	3.69206e-005
				462.891	2.39032e-005
				462.891	2.39032e-005
				462.891	2.39032e-005
		464.355	5.62646e-005	464.355	4.87871e-005
		464.355	4.87871e-005	464.355	4.87871e-005
				464.355	4.87871e-005
		465.82	3.37713e-005	465.82	2.33067e-005
		465.82	2.33067e-005	465.82	2.33067e-005
				465.82	2.33067e-005
		467.285	3.67733e-005	467.285	2.99856e-005
		467.285	2.99856e-005	467.285	2.99856e-005
				467.285	2.99856e-005
468.75	6.97268e-005			468.75	4.85568e-005
468.75	4.85568e-005			468.75	4.85568e-005
				468.75	4.85568e-005
				470.215	5.21316e-005
				470.215	5.21316e-005
				470.215	5.21316e-005
				471.68	4.36276e-005
				471.68	4.36276e-005
				471.68	4.36276e-005
				473.145	5.34086e-005
				473.145	5.34086e-005
				473.145	5.34086e-005
				474.609	8.16469e-005
				474.609	8.16469e-005
				474.609	8.16469e-005
		476.074	7.41058e-005	476.074	3.99872e-005
		476.074	3.99872e-005	476.074	3.99872e-005
				476.074	3.99872e-005
				477.539	8.96003e-005
				477.539	8.96003e-005
				477.539	8.96003e-005
				479.004	3.04504e-005
				479.004	3.04504e-005
				479.004	3.04504e-005
		480.469	8.79327e-005	480.469	6.60484e-005
		480.469	6.60484e-005	480.469	6.60484e-005
				480.469	6.60484e-005
481.934	4.62019e-005			481.934	4.38847e-005
481.934	4.38847e-005			481.934	4.38847e-005
				481.934	4.38847e-005
				483.398	4.90235e-005
				483.398	4.90235e-005
				483.398	4.90235e-005
				484.863	3.81888e-005
				484.863	3.81888e-005
				484.863	3.81888e-005
		486.328	4.4212e-005	486.328	3.23853e-005
		486.328	3.23853e-005	486.328	3.23853e-005
				486.328	3.23853e-005
				487.793	4.83653e-005
				487.793	4.83653e-005
				487.793	4.83653e-005
				489.258	6.70463e-005
				489.258	6.70463e-005
				489.258	6.70463e-005
		490.723	7.7948e-005	490.723	5.76759e-005
		490.723	5.76759e-005	490.723	5.76759e-005
				490.723	5.76759e-005
				492.188	7.73448e-005
				492.188	7.73448e-005
				492.188	7.73448e-005
		493.652	4.3623e-005	493.652	1.67294e-005
		493.652	1.67294e-005	493.652	1.67294e-005
				493.652	1.67294e-005
		495.117	8.0933e-005	495.117	2.53772e-005
		495.117	2.53772e-005	495.117	2.53772e-005
				495.117	2.53772e-005
496.582	8.01179e-005			496.582	2.28612e-005
496.582	2.28612e-005			496.582	2.28612e-005
				496.582	2.28612e-005
				498.047	4.29169e-005
				498.047	4.29169e-005
				498.047	4.29169e-005
		499.512	6.47251e-005	499.512	2.92215e-005
		499.512	2.92215e-005	499.512	2.92215e-005
				499.512	2.92215e-005
		500.977	3.96807e-005	500.977	3.17755e-005
		500.977	3.17755e-005	500.977	3.17755e-005
				500.977	3.17755e-005
		502.441	4.50494e-005	502.441	1.93584e-005
		502.441	1.93584e-005	502.441	1.93584e-005
				502.441	1.93584e-005
				503.906	0.00011067
				503.906	0.00011067
				503.906	0.00011067
		505.371	6.22332e-005	505.371	2.35164e-005
		505.371	2.35164e-005	505.371	2.35164e-005
				505.371	2.35164e-005
				506.836	6.35109e-005
				506.836	6.35109e-005
				506.836	6.35109e-005
				508.301	3.82605e-005
				508.301	3.82605e-005
				508.301	3.82605e-005
				509.766	6.47309e-005
				509.766	6.47309e-005
				509.766	6.47309e-005
511.23	0.00010388			511.23	1.80663e-005
511.23	1.80663e-005			511.23	1.80663e-005
				511.23	1.80663e-005
		512.695	5.90875e-005	512.695	4.48232e-005
		512.695	4.48232e-005	512.695	4.48232e-005
				512.695	4.48232e-005
		514.16	4.53336e-005	514.16	1.54983e-005
		514.16	1.54983e-005	514.16	1.54983e-005
				514.16	1.54983e-005
				515.625	6.41532e-005
				515.625	6.41532e-005
				515.625	6.41532e-005
		517.09	5.50686e-005	517.09	1.30106e-005
		517.09	1.30106e-005	517.09	1.30106e-005
				517.09	1.30106e-005
		518.555	4.45554e-005	518.555	2.18273e-005
		518.555	2.18273e-005	518.555	2.18273e-005
				518.555	2.18273e-005
		520.02	4.54874e-005	520.02	1.66332e-005
		520.02	1.66332e-005	520.02	1.66332e-005
				520.02	1.66332e-005
				521.484	5.59589e-005
				521.484	5.59589e-005
				521.484	5.59589e-005
		522.949	6.62244e-005	522.949	3.26808e-005
		522.949	3.26808e-005	522.949	3.26808e-005
				522.949	3.26808e-005
				524.414	9.56816e-005
				524.414	9.56816e-005
				524.414	9.56816e-005
525.879	6.24363e-005			525.879	5.68029e-005
525.879	5.68029e-005			525.879	5.68029e-005
				525.879	5.68029e-005
		527.344	4.08948e-005	527.344	3.27953e-005
		527.344	3.27953e-005	527.344	3.27953e-005
				527.344	3.27953e-005
		528.809	7.72335e-005	528.809	6.67255e-005
		528.809	6.67255e-005	528.809	6.67255e-005
				528.809	6.67255e-005
		530.273	2.78483e-005	530.273	2.57172e-005
		530.273	2.57172e-005	530.273	2.57172e-005
				530.273	2.57172e-005
		531.738	2.26202e-005	531.738	1.88099e-005
		531.738	1.88099e-005	531.738	1.88099e-005
				531.738	1.88099e-005
				533.203	9.35303e-005
				533.203	9.35303e-005
				533.203	9.35303e-005
		534.668	6.99312e-005	534.668	3.01798e-005
		534.668	3.01798e-005	534.668	3.01798e-005
				534.668	3.01798e-005
		536.133	8.0875e-005	536.133	7.99392e-005
		536.133	7.99392e-005	536.133	7.99392e-005
				536.133	7.99392e-005
		537.598	0.000106423	537.598	4.10519e-005
		537.598	4.10519e-005	537.598	4.10519e-005
				537.598	4.10519e-005
				539.063	0.000105299
				539.063	0.000105299
				539.063	0.000105299
		540.527	6.46967e-005	540.527	2.74648e-005
		540.527	2.74648e-005	540.527	2.74648e-005
				540.527	2.74648e-005
541.992	8.19647e-005			541.992	6.39902e-005
541.992	6.39902e-005			541.992	6.39902e-005
				541.992	6.39902e-005
				543.457	6.13682e-005
				543.457	6.13682e-005
				543.457	6.13682e-005
		544.922	6.53775e-005	544.922	2.22499e-005
		544.922	2.22499e-005	544.922	2.22499e-005
				544.922	2.22499e-005
				546.387	4.3494e-005
				546.387	4.3494e-005
				546.387	4.3494e-005
				547.852	6.16565e-005
				547.852	6.16565e-005
				547.852	6.16565e-005
		549.316	5.19937e-005	549.316	4.29614e-006
		549.316	4.29614e-006	549.316	4.29614e-006
				549.316	4.29614e-006
				550.781	5.20548e-005
				550.781	5.20548e-005
				550.781	5.20548e-005
				552.246	3.8772e-005
				552.246	3.8772e-005
				552.246	3.8772e-005
		553.711	5.9927e-005	553.711	2.26209e-005
		553.711	2.26209e-005	553.711	2.26209e-005
				553.711	2.26209e-005
				555.176	5.19616e-005
				555.176	5.19616e-005
				555.176	5.19616e-005
				556.641	5.8244e-005
				556.641	5.8244e-005
				556.641	5.8244e-005
558.105	7.15713e-005			558.105	6.67901e-005
558.105	6.67901e-005			558.105	6.67901e-005
				558.105	6.67901e-005
				559.57	2.8765e-005
				559.57	2.8765e-005
				559.57	2.8765e-005
		561.035	8.6656e-005	561.035	2.73996e-005
		561.035	2.73996e-005	561.035	2.73996e-005
				561.035	2.73996e-005
		562.5	3.97987e-005	562.5	1.7725e-005
		562.5	1.7725e-005	562.5	1.7725e-005
				562.5	1.7725e-005
				563.965	4.52285e-005
				563.965	4.52285e-005
				563.965	4.52285e-005
		565.43	7.64881e-005	565.43	4.26126e-005
		565.43	4.26126e-005	565.43	4.26126e-005
				565.43	4.26126e-005
		566.895	5.75097e-005	566.895	2.95145e-005
		566.895	2.95145e-005	566.895	2.95145e-005
				566.895	2.95145e-005
				568.359	5.29447e-005
				568.359	5.29447e-005
				568.359	5.29447e-005
				569.824	6.88341e-005
				569.824	6.88341e-005
				569.824	6.88341e-005
		571.289	2.95534e-005	571.289	2.72392e-005
		571.289	2.72392e-005	571.289	2.72392e-005
				571.289	2.72392e-005
				572.754	3.66583e-005
				572.754	3.66583e-005
				572.754	3.66583e-005
				574.219	6e-005
				574.219	6e-005
				574.219	6e-005
		575.684	7.292e-005	575.684	6.17441e-005
		575.684	6.17441e-005	575.684	6.17441e-005
				575.684	6.17441e-005
				577.148	6.69943e-005
				577.148	6.69943e-005
				577.148	6.69943e-005
				578.613	1.62818e-005
				578.613	1.62818e-005
				578.613	1.62818e-005
				580.078	4.44152e-005
				580.078	4.44152e-005
				580.078	4.44152e-005
				581.543	7.99828e-005
				581.543	7.99828e-005
				581.543	7.99828e-005
		583.008	2.85408e-005	583.008	1.27256e-005
		583.008	1.27256e-005	583.008	1.27256e-005
				583.008	1.27256e-005
				584.473	5.02063e-005
				584.473	5.02063e-005
				584.473	5.02063e-005
		585.938	7.68761e-005	585.938	6.61757e-006
		585.938	6.61757e-006	585.938	6.61757e-006
				585.938	6.61757e-006
		587.402	6.25887e-005	587.402	3.83481e-005
		587.402	3.83481e-005	587.402	3.83481e-005
				587.402	3.83481e-005
		588.867	6.95661e-005	588.867	1.40733e-005
		588.867	1.40733e-005	588.867	1.40733e-005
				588.867	1.40733e-005
590.332	6.30468e-005			590.332	1.39415e-005
590.332	1.39415e-005			590.332	1.39415e-005
				590.332	1.39415e-005
				591.797	5.95794e-005
				591.797	5.95794e-005
				591.797	5.95794e-005
				593.262	9.5708e-005
				593.262	9.5708e-005
				593.262	9.5708e-005
				594.727	3.38743e-005
				594.727	3.38743e-005
				594.727	3.38743e-005
		596.191	9.7873e-005	596.191	6.23018e-005
		596.191	6.23018e-005	596.191	6.23018e-005
				596.191	6.23018e-005
				597.656	0.000120982
				597.656	0.000120982
				597.656	0.000120982
				599.121	4.13938e-005
				599.121	4.13938e-005
				599.121	4.13938e-005
				600.586	2.93106e-005
				600.586	2.93106e-005
				600.586	2.93106e-005
				602.051	5.21771e-005
				602.051	5.21771e-005
				602.051	5.21771e-005
				603.516	0.000106665
				603.516	0.000106665
				603.516	0.000106665
		604.98	6.0295e-005	604.98	4.17333e-005
		604.98	4.17333e-005	604.98	4.17333e-005
				604.98	4.17333e-005
				606.445	2.90004e-005
				606.445	2.90004e-005
				606.445	2.90004e-005
				607.91	4.80646e-005
				607.91	4.80646e-005
				607.91	4.80646e-005
		609.375	2.05246e-005	609.375	1.25913e-005
		609.375	1.25913e-005	609.375	1.25913e-005
				609.375	1.25913e-005
		610.84	6.92093e-005	610.84	4.96701e-005
		610.84	4.96701e-005	610.84	4.96701e-005
				610.84	4.96701e-005
		612.305	7.03883e-005	612.305	3.077e-005
		612.305	3.077e-005	612.305	3.077e-005
				612.305	3.077e-005
		613.77	4.26106e-005	613.77	1.32705e-005
		613.77	1.32705e-005	613.77	1.32705e-005
				613.77	1.32705e-005
				615.234	6.51036e-005
				615.234	6.51036e-005
				615.234	6.51036e-005
				616.699	1.98234e-005
				616.699	1.98234e-005
				616.699	1.98234e-005
				618.164	8.98072e-005
				618.164	8.98072e-005
				618.164	8.98072e-005
		619.629	6.21481e-005	619.629	5.76935e-005
		619.629	5.76935e-005	619.629	5.76935e-005
				619.629	5.76935e-005
				621.094	3.94777e-005
				621.094	3.94777e-005
				621.094	3.94777e-005
		622.559	5.99614e-005	622.559	2.82333e-005
		622.559	2.82333e-005	622.559	2.82333e-005
				622.559	2.82333e-005
		624.023	8.96207e-005	624.023	2.04906e-005
		624.023	2.04906e-005	624.023	2.04906e-005
				624.023	2.04906e-005
625.488	2.53734e-005			625.488	2.07171e-005
625.488	2.07171e-005			625.488	2.07171e-005
				625.488	2.07171e-005
		626.953	5.97224e-005	626.953	2.26186e-005
		626.953	2.26186e-005	626.953	2.26186e-005
				626.953	2.26186e-005
		628.418	6.66014e-005	628.418	1.91881e-005
		628.418	1.91881e-005	628.418	1.91881e-005
				628.418	1.91881e-005
				629.883	5.72903e-005
				629.883	5.72903e-005
				629.883	5.72903e-005
				631.348	5.38706e-005
				631.348	5.38706e-005
				631.348	5.38706e-005
		632.813	5.41089e-005	632.813	3.79878e-005
		632.813	3.79878e-005	632.813	3.79878e-005
				632.813	3.79878e-005
				634.277	6.47029e-005
				634.277	6.47029e-005
				634.277	6.47029e-005
				635.742	5.20358e-005
				635.742	5.20358e-005
				635.742	5.20358e-005
		637.207	5.86078e-005	637.207	1.2235e-005
		637.207	1.2235e-005	637.207	1.2235e-005
				637.207	1.2235e-005
		638.672	3.58117e-005	638.672	3.0465e-005
		638.672	3.0465e-005	638.672	3.0465e-005
				638.672	3.0465e-005
		640.137	0.000307856	640.137	1.50704e-005
		640.137	1.50704e-005	640.137	1.50704e-005
				640.137	1.50704e-005
				641.602	3.77559e-005
				641.602	3.77559e-005
				641.602	3.77559e-005
		643.066	3.64671e-005	643.066	1.82992e-005
		643.066	1.82992e-005	643.066	1.82992e-005
				643.066	1.82992e-005
644.531	4.42331e-005			644.531	9.61189e-006
644.531	9.61189e-006			644.531	9.61189e-006
				644.531	9.61189e-006
		645.996	4.87472e-005	645.996	2.96291e-005
		645.996	2.96291e-005	645.996	2.96291e-005
				645.996	2.96291e-005
		647.461	9.69778e-005	647.461	3.87159e-005
		647.461	3.87159e-005	647.461	3.87159e-005
				647.461	3.87159e-005
				648.926	7.07136e-005
				648.926	7.07136e-005
				648.926	7.07136e-005
				650.391	5.57313e-005
				650.391	5.57313e-005
				650.391	5.57313e-005
		651.855	5.75733e-005	651.855	4.05456e-005
		651.855	4.05456e-005	651.855	4.05456e-005
				651.855	4.05456e-005
		653.32	6.41398e-005	653.32	2.97035e-005
		653.32	2.97035e-005	653.32	2.97035e-005
				653.32	2.97035e-005
		654.785	4.95875e-005	654.785	5.49215e-006
		654.785	5.49215e-006	654.785	5.49215e-006
				654.785	5.49215e-006
		656.25	1.65003e-005	656.25	1.32245e-005
		656.25	1.32245e-005	656.25	1.32245e-005
				656.25	1.32245e-005
		657.715	6.33098e-005	657.715	2.34538e-005
		657.715	2.34538e-005	657.715	2.34538e-005
				657.715	2.34538e-005
				659.18	3.34907e-005
				659.18	3.34907e-005
				659.18	3.34907e-005
		660.645	9.36341e-005	660.645	2.38569e-005
		660.645	2.38569e-005	660.645	2.38569e-005
				660.645	2.38569e-005
				662.109	6.17008e-005
				662.109	6.17008e-005
				662.109	6.17008e-005
				663.574	5.26229e-005
				663.574	5.26229e-005
				663.574	5.26229e-005
		665.039	8.64053e-005	665.039	2.01767e-005
		665.039	2.01767e-005	665.039	2.01767e-005
				665.039	2.01767e-005
				666.504	3.66277e-005
				666.504	3.66277e-005
				666.504	3.66277e-005
				667.969	5.15837e-005
				667.969	5.15837e-005
				667.969	5.15837e-005
		669.434	9.55059e-005	669.434	5.71259e-005
		669.434	5.71259e-005	669.434	5.71259e-005
				669.434	5.71259e-005
				670.898	6.10435e-005
				670.898	6.10435e-005
				670.898	6.10435e-005
		672.363	4.18635e-005	672.363	2.41992e-005
		672.363	2.41992e-005	672.363	2.41992e-005
				672.363	2.41992e-005
		673.828	5.30889e-005	673.828	4.83582e-005
		673.828	4.83582e-005	673.828	4.83582e-005
				673.828	4.83582e-005
				675.293	3.31136e-005
				675.293	3.31136e-005
				675.293	3.31136e-005
		676.758	8.21538e-005	676.758	6.15659e-005
		676.758	6.15659e-005	676.758	6.15659e-005
				676.758	6.15659e-005
				678.223	5.56466e-005
				678.223	5.56466e-005
				678.223	5.56466e-005
		679.688	6.40403e-005	679.688	3.84094e-005
		679.688	3.84094e-005	679.688	3.84094e-005
				679.688	3.84094e-005
		681.152	4.85969e-005	681.152	4.61708e-005
		681.152	4.61708e-005	681.152	4.61708e-005
				681.152	4.61708e-005
				682.617	0.000116701
				682.617	0.000116701
				682.617	0.000116701
		684.082	6.84958e-005	684.082	2.13407e-005
		684.082	2.13407e-005	684.082	2.13407e-005
				684.082	2.13407e-005
				685.547	8.73956e-005
				685.547	8.73956e-005
				685.547	8.73956e-005
				687.012	0.000106492
				687.012	0.000106492
				687.012	0.000106492
				688.477	3.59318e-005
				688.477	3.59318e-005
				688.477	3.59318e-005
				689.941	7.61257e-005
				689.941	7.61257e-005
				689.941	7.61257e-005
		691.406	1.89193e-005	691.406	1.86862e-005
		691.406	1.86862e-005	691.406	1.86862e-005
				691.406	1.86862e-005
				692.871	3.91562e-005
				692.871	3.91562e-005
				692.871	3.91562e-005
		694.336	0.000107379	694.336	2.30991e-005
		694.336	2.30991e-005	694.336	2.30991e-005
				694.336	2.30991e-005
				695.801	7.84084e-005
				695.801	7.84084e-005
				695.801	7.84084e-005
		697.266	6.09498e-005	697.266	1.06806e-005
		697.266	1.06806e-005	697.266	1.06806e-005
				697.266	1.06806e-005
				698.73	4.98989e-005
				698.73	4.98989e-005
				698.73	4.98989e-005
		700.195	3.4528e-005	700.195	2.90888e-005
		700.195	2.90888e-005	700.195	2.90888e-005
				700.195	2.90888e-005
				701.66	7.1847e-005
				701.66	7.1847e-005
				701.66	7.1847e-005
		703.125	3.6687e-005	703.125	2.59967e-005
		703.125	2.59967e-005	703.125	2.59967e-005
				703.125	2.59967e-005
				704.59	8.99201e-005
				704.59	8.99201e-005
				704.59	8.99201e-005
				706.055	4.5683e-005
				706.055	4.5683e-005
				706.055	4.5683e-005
		707.52	7.29012e-005	707.52	4.82924e-005
		707.52	4.82924e-005	707.52	4.82924e-005
				707.52	4.82924e-005
				708.984	4.35219e-005
				708.984	4.35219e-005
				708.984	4.35219e-005
		710.449	4.20328e-005	710.449	3.65046e-005
		710.449	3.65046e-005	710.449	3.65046e-005
				710.449	3.65046e-005
		711.914	8.23999e-005	711.914	2.52443e-005
		711.914	2.52443e-005	711.914	2.52443e-005
				711.914	2.52443e-005
				713.379	7.51128e-005
				713.379	7.51128e-005
				713.379	7.51128e-005
				714.844	4.57627e-005
				714.844	4.57627e-005
				714.844	4.57627e-005
				716.309	3.18445e-005
				716.309	3.18445e-005
				716.309	3.18445e-005
		717.773	3.69367e-005	717.773	3.25519e-005
		717.773	3.25519e-005	717.773	3.25519e-005
				717.773	3.25519e-005
		719.238	5.68107e-005	719.238	3.26839e-005
		719.238	3.26839e-005	719.238	3.26839e-005
				719.238	3.26839e-005
				720.703	5.37562e-005
				720.703	5.37562e-005
				720.703	5.37562e-005
		722.168	7.04014e-005	722.168	2.67006e-005
		722.168	2.67006e-005	722.168	2.67006e-005
				722.168	2.67006e-005
723.633	6.3247e-005			723.633	1.41496e-005
723.633	1.41496e-005			723.633	1.41496e-005
				723.633	1.41496e-005
		725.098	8.8201e-005	725.098	1.31456e-005
		725.098	1.31456e-005	725.098	1.31456e-005
				725.098	1.31456e-005
				726.563	1.7043e-005
				726.563	1.7043e-005
				726.563	1.7043e-005
		728.027	0.000119058	728.027	4.50348e-005
		728.027	4.50348e-005	728.027	4.50348e-005
				728.027	4.50348e-005
				729.492	3.91375e-005
				729.492	3.91375e-005
				729.492	3.91375e-005
				730.957	9.39779e-005
				730.957	9.39779e-005
				730.957	9.39779e-005
		732.422	3.29224e-005	732.422	1.9913e-005
		732.422	1.9913e-005	732.422	1.9913e-005
				732.422	1.9913e-005
		733.887	9.39123e-005	733.887	1.74901e-005
		733.887	1.74901e-005	733.887	1.74901e-005
				733.887	1.74901e-005
		735.352	6.91407e-005	735.352	1.02093e-005
		735.352	1.02093e-005	735.352	1.02093e-005
				735.352	1.02093e-005
				736.816	3.64801e-005
				736.816	3.64801e-005
				736.816	3.64801e-005
		738.281	3.97804e-005	738.281	2.95957e-005
		738.281	2.95957e-005	738.281	2.95957e-005
				738.281	2.95957e-005
				739.746	5.46565e-005
				739.746	5.46565e-005
				739.746	5.46565e-005
		741.211	4.29384e-005	741.211	3.2405e-005
		741.211	3.2405e-005	741.211	3.2405e-005
				741.211	3.2405e-005
				742.676	6.5316e-005
				742.676	6.5316e-005
				742.676	6.5316e-005
744.141	6.12608e-005			744.141	1.71831e-005
744.141	1.71831e-005			744.141	1.71831e-005
				744.141	1.71831e-005
		745.605	4.41631e-005	745.605	3.97543e-005
		745.605	3.97543e-005	745.605	3.97543e-005
				745.605	3.97543e-005
				747.07	4.35939e-005
				747.07	4.35939e-005
				747.07	4.35939e-005
		748.535	8.40212e-005	748.535	5.28981e-005
		748.535	5.28981e-005	748.535	5.28981e-005
				748.535	5.28981e-005
				750	9.23199e-005
				750	9.23199e-005
				750	9.23199e-005
				751.465	5.37756e-005
				751.465	5.37756e-005
				751.465	5.37756e-005
		752.93	6.03771e-005	752.93	4.99158e-005
		752.93	4.99158e-005	752.93	4.99158e-005
				752.93	4.99158e-005
		754.395	6.09457e-005	754.395	3.71933e-005
		754.395	3.71933e-005	754.395	3.71933e-005
				754.395	3.71933e-005
		755.859	7.36324e-005	755.859	3.2571e-005
		755.859	3.2571e-005	755.859	3.2571e-005
				755.859	3.2571e-005
		757.324	3.02899e-005	757.324	2.87394e-005
		757.324	2.87394e-005	757.324	2.87394e-005
				757.324	2.87394e-005
		758.789	7.29359e-006	758.789	6.55091e-006
		758.789	6.55091e-006	758.789	6.55091e-006
				758.789	6.55091e-006
				760.254	5.17583e-005
				760.254	5.17583e-005
				760.254	5.17583e-005
				761.719	3.64653e-005
				761.719	3.64653e-005
				761.719	3.64653e-005
		763.184	6.03332e-005	763.184	4.06177e-005
		763.184	4.06177e-005	763.184	4.06177e-005
				763.184	4.06177e-005
				764.648	5.37326e-005
				764.648	5.37326e-005
				764.648	5.37326e-005
				766.113	3.76285e-005
				766.113	3.76285e-005
				766.113	3.76285e-005
		767.578	5.25284e-005	767.578	4.23177e-005
		767.578	4.23177e-005	767.578	4.23177e-005
				767.578	4.23177e-005
				769.043	5.61055e-005
				769.043	5.61055e-005
				769.043	5.61055e-005
				770.508	5.28748e-005
				770.508	5.28748e-005
				770.508	5.28748e-005
				771.973	2.45246e-005
				771.973	2.45246e-005
				771.973	2.45246e-005
				773.438	6.17357e-005
				773.438	6.17357e-005
				773.438	6.17357e-005
				774.902	5.49707e-005
				774.902	5.49707e-005
				774.902	5.49707e-005
		776.367	3.72665e-005	776.367	2.07456e-005
		776.367	2.07456e-005	776.367	2.07456e-005
				776.367	2.07456e-005
				777.832	1.5568e-005
				777.832	1.5568e-005
				777.832	1.5568e-005
				779.297	1.72598e-005
				779.297	1.72598e-005
				779.297	1.72598e-005
		780.762	5.46224e-005	780.762	2.58657e-005
		780.762	2.58657e-005	780.762	2.58657e-005
				780.762	2.58657e-005
				782.227	5.58171e-005
				782.227	5.58171e-005
				782.227	5.58171e-005
		783.691	3.91349e-005	783.691	1.48544e-005
		783.691	1.48544e-005	783.691	1.48544e-005
				783.691	1.48544e-005
		785.156	3.75444e-005	785.156	3.48691e-005
		785.156	3.48691e-005	785.156	3.48691e-005
				785.156	3.48691e-005
		786.621	2.88358e-005	786.621	1.44691e-005
		786.621	1.44691e-005	786.621	1.44691e-005
				786.621	1.44691e-005
788.086	3.40696e-005			788.086	1.61553e-005
788.086	1.61553e-005			788.086	1.61553e-005
				788.086	1.61553e-005
				789.551	7.32669e-005
				789.551	7.32669e-005
				789.551	7.32669e-005
		791.016	4.5237e-005	791.016	2.66752e-005
		791.016	2.66752e-005	791.016	2.66752e-005
				791.016	2.66752e-005
				792.48	5.61382e-005
				792.48	5.61382e-005
				792.48	5.61382e-005
				793.945	3.02922e-005
				793.945	3.02922e-005
				793.945	3.02922e-005
				795.41	2.85681e-005
				795.41	2.85681e-005
				795.41	2.85681e-005
				796.875	6.74482e-005
				796.875	6.74482e-005
				796.875	6.74482e-005
		798.34	4.39906e-005	798.34	2.65497e-005
		798.34	2.65497e-005	798.34	2.65497e-005
				798.34	2.65497e-005
				799.805	4.90298e-005
				799.805	4.90298e-005
				799.805	4.90298e-005
		801.27	5.08589e-005	801.27	2.45815e-005
		801.27	2.45815e-005	801.27	2.45815e-005
				801.27	2.45815e-005
				802.734	8.34559e-005
				802.734	8.34559e-005
				802.734	8.34559e-005
				804.199	5.34565e-005
				804.199	5.34565e-005
				804.199	5.34565e-005
		805.664	9.76161e-005	805.664	3.28215e-005
		805.664	3.28215e-005	805.664	3.28215e-005
				805.664	3.28215e-005
		807.129	6.57353e-005	807.129	4.70122e-005
		807.129	4.70122e-005	807.129	4.70122e-005
				807.129	4.70122e-005
				808.594	5.20579e-005
				808.594	5.20579e-005
				808.594	5.20579e-005
		810.059	3.6557e-005	810.059	2.1204e-005
		810.059	2.1204e-005	810.059	2.1204e-005
				810.059	2.1204e-005
				811.523	7.80967e-005
				811.523	7.80967e-005
				811.523	7.80967e-005
		812.988	4.21422e-005	812.988	2.84058e-005
		812.988	2.84058e-005	812.988	2.84058e-005
				812.988	2.84058e-005
				814.453	3.34306e-005
				814.453	3.34306e-005
				814.453	3.34306e-005
				815.918	9.13004e-005
				815.918	9.13004e-005
				815.918	9.13004e-005
		817.383	6.60057e-005	817.383	3.10579e-005
		817.383	3.10579e-005	817.383	3.10579e-005
				817.383	3.10579e-005
		818.848	5.63919e-005	818.848	2.09429e-005
		818.848	2.09429e-005	818.848	2.09429e-005
				818.848	2.09429e-005
				820.313	2.85396e-005
				820.313	2.85396e-005
				820.313	2.85396e-005
		821.777	3.98761e-005	821.777	2.85388e-005
		821.777	2.85388e-005	821.777	2.85388e-005
				821.777	2.85388e-005
				823.242	4.74906e-005
				823.242	4.74906e-005
				823.242	4.74906e-005
		824.707	3.09904e-005	824.707	2.39027e-005
		824.707	2.39027e-005	824.707	2.39027e-005
				824.707	2.39027e-005
		826.172	4.369e-005	826.172	3.03728e-005
		826.172	3.03728e-005	826.172	3.03728e-005
				826.172	3.03728e-005
		827.637	4.61822e-005	827.637	4.35631e-005
		827.637	4.35631e-005	827.637	4.35631e-005
				827.637	4.35631e-005
		829.102	7.30429e-005	829.102	1.71399e-005
		829.102	1.71399e-005	829.102	1.71399e-005
				829.102	1.71399e-005
		830.566	6.72729e-005	830.566	3.58762e-005
		830.566	3.58762e-005	830.566	3.58762e-005
				830.566	3.58762e-005
		832.031	7.10854e-005	832.031	4.44146e-005
		832.031	4.44146e-005	832.031	4.44146e-005
				832.031	4.44146e-005
				833.496	6.11509e-005
				833.496	6.11509e-005
				833.496	6.11509e-005
834.961	5.3543e-005			834.961	2.57328e-005
834.961	2.57328e-005			834.961	2.57328e-005
				834.961	2.57328e-005
		836.426	5.0987e-005	836.426	3.48298e-005
		836.426	3.48298e-005	836.426	3.48298e-005
				836.426	3.48298e-005
		837.891	5.74175e-005	837.891	2.15522e-005
		837.891	2.15522e-005	837.891	2.15522e-005
				837.891	2.15522e-005
		839.355	4.11635e-005	839.355	3.18184e-005
		839.355	3.18184e-005	839.355	3.18184e-005
				839.355	3.18184e-005
				840.82	5.15639e-005
				840.82	5.15639e-005
				840.82	5.15639e-005
				842.285	5.60149e-005
				842.285	5.60149e-005
				842.285	5.60149e-005
				843.75	1.1454e-005
				843.75	1.1454e-005
				843.75	1.1454e-005
				845.215	6.25099e-005
				845.215	6.25099e-005
				845.215	6.25099e-005
		846.68	4.07195e-005	846.68	3.01018e-005
		846.68	3.01018e-005	846.68	3.01018e-005
				846.68	3.01018e-005
		848.145	3.86176e-005	848.145	2.22094e-005
		848.145	2.22094e-005	848.145	2.22094e-005
				848.145	2.22094e-005
		849.609	3.82925e-005	849.609	2.47574e-005
		849.609	2.47574e-005	849.609	2.47574e-005
				849.609	2.47574e-005
		851.074	8.46996e-005	851.074	6.08223e-005
		851.074	6.08223e-005	851.074	6.08223e-005
				851.074	6.08223e-005
				852.539	7.62606e-005
				852.539	7.62606e-005
				852.539	7.62606e-005
		854.004	6.3836e-005	854.004	1.41902e-005
		854.004	1.41902e-005	854.004	1.41902e-005
				854.004	1.41902e-005
		855.469	5.60938e-005	855.469	3.32555e-005
		855.469	3.32555e-005	855.469	3.32555e-005
				855.469	3.32555e-005
				856.934	5.12241e-005
				856.934	5.12241e-005
				856.934	5.12241e-005
		858.398	4.60826e-005	858.398	4.16945e-005
		858.398	4.16945e-005	858.398	4.16945e-005
				858.398	4.16945e-005
				859.863	4.54557e-005
				859.863	4.54557e-005
				859.863	4.54557e-005
				861.328	6.41429e-005
				861.328	6.41429e-005
				861.328	6.41429e-005
				862.793	3.56067e-005
				862.793	3.56067e-005
				862.793	3.56067e-005
				864.258	3.87575e-005
				864.258	3.87575e-005
				864.258	3.87575e-005
				865.723	4.41719e-005
				865.723	4.41719e-005
				865.723	4.41719e-005
				867.188	4.10105e-005
				867.188	4.10105e-005
				867.188	4.10105e-005
		868.652	5.36904e-005	868.652	4.13313e-005
		868.652	4.13313e-005	868.652	4.13313e-005
				868.652	4.13313e-005
		870.117	2.7762e-005	870.117	2.28442e-005
		870.117	2.28442e-005	870.117	2.28442e-005
				870.117	2.28442e-005
				871.582	7.04151e-005
				871.582	7.04151e-005
				871.582	7.04151e-005
		873.047	3.09586e-005	873.047	2.57403e-005
		873.047	2.57403e-005	873.047	2.57403e-005
				873.047	2.57403e-005
		874.512	4.6045e-005	874.512	2.28346e-005
		874.512	2.28346e-005	874.512	2.28346e-005
				874.512	2.28346e-005
		875.977	5.28137e-005	875.977	1.44362e-005
		875.977	1.44362e-005	875.977	1.44362e-005
				875.977	1.44362e-005
		877.441	3.0982e-005	877.441	2.62437e-005
		877.441	2.62437e-005	877.441	2.62437e-005
				877.441	2.62437e-005
				878.906	3.44062e-005
				878.906	3.44062e-005
				878.906	3.44062e-005
				880.371	5.96743e-005
				880.371	5.96743e-005
				880.371	5.96743e-005
				881.836	3.19219e-005
				881.836	3.19219e-005
				881.836	3.19219e-005
		883.301	1.8267e-005	883.301	1.19319e-005
		883.301	1.19319e-005	883.301	1.19319e-005
				883.301	1.19319e-005
884.766	8.14147e-005			884.766	2.94318e-005
884.766	2.94318e-005			884.766	2.94318e-005
				884.766	2.94318e-005
		886.23	3.65398e-005	886.23	1.26907e-005
		886.23	1.26907e-005	886.23	1.26907e-005
				886.23	1.26907e-005
		887.695	2.10056e-005	887.695	1.20081e-005
		887.695	1.20081e-005	887.695	1.20081e-005
				887.695	1.20081e-005
		889.16	3.88399e-005	889.16	2.2266e-005
		889.16	2.2266e-005	889.16	2.2266e-005
				889.16	2.2266e-005
				890.625	5.09392e-005
				890.625	5.09392e-005
				890.625	5.09392e-005
		892.09	2.57041e-005	892.09	1.95097e-005
		892.09	1.95097e-005	892.09	1.95097e-005
				892.09	1.95097e-005
		893.555	9.18282e-005	893.555	2.20557e-005
		893.555	2.20557e-005	893.555	2.20557e-005
				893.555	2.20557e-005
		895.02	8.19524e-005	895.02	1.31204e-005
		895.02	1.31204e-005	895.02	1.31204e-005
				895.02	1.31204e-005
				896.484	8.2531e-005
				896.484	8.2531e-005
				896.484	8.2531e-005
				897.949	6.3565e-005
				897.949	6.3565e-005
				897.949	6.3565e-005
		899.414	6.61356e-005	899.414	4.48766e-005
		899.414	4.48766e-005	899.414	4.48766e-005
				899.414	4.48766e-005
				900.879	6.24651e-005
				900.879	6.24651e-005
				900.879	6.24651e-005
		902.344	3.03916e-005	902.344	1.02018e-005
		902.344	1.02018e-005	902.344	1.02018e-005
				902.344	1.02018e-005
		903.809	7.65922e-005	903.809	4.78055e-005
		903.809	4.78055e-005	903.809	4.78055e-005
				903.809	4.78055e-005
				905.273	4.91018e-005
				905.273	4.91018e-005
				905.273	4.91018e-005
				906.738	7.85675e-005
				906.738	7.85675e-005
				906.738	7.85675e-005
		908.203	7.12172e-005	908.203	2.23368e-005
		908.203	2.23368e-005	908.203	2.23368e-005
				908.203	2.23368e-005
				909.668	4.87814e-005
				909.668	4.87814e-005
				909.668	4.87814e-005
				911.133	6.49511e-005
				911.133	6.49511e-005
				911.133	6.49511e-005
		912.598	4.62671e-005	912.598	2.81137e-005
		912.598	2.81137e-005	912.598	2.81137e-005
				912.598	2.81137e-005
		914.063	5.19781e-005	914.063	4.32441e-005
		914.063	4.32441e-005	914.063	4.32441e-005
				914.063	4.32441e-005
		915.527	5.37989e-005	915.527	4.61137e-005
		915.527	4.61137e-005	915.527	4.61137e-005
				915.527	4.61137e-005
		916.992	6.16375e-005	916.992	2.96507e-005
		916.992	2.96507e-005	916.992	2.96507e-005
				916.992	2.96507e-005
				918.457	5.00183e-005
				918.457	5.00183e-005
				918.457	5.00183e-005
				919.922	4.94281e-005
				919.922	4.94281e-005
				919.922	4.94281e-005
		921.387	6.21048e-005	921.387	1.24422e-005
		921.387	1.24422e-005	921.387	1.24422e-005
				921.387	1.24422e-005
				922.852	6.97408e-005
				922.852	6.97408e-005
				922.852	6.97408e-005
		924.316	4.79539e-005	924.316	3.39618e-005
		924.316	3.39618e-005	924.316	3.39618e-005
				924.316	3.39618e-005
		925.781	6.31216e-005	925.781	6.22474e-005
		925.781	6.22474e-005	925.781	6.22474e-005
				925.781	6.22474e-005
		927.246	5.3531e-005	927.246	4.85667e-005
		927.246	4.85667e-005	927.246	4.85667e-005
				927.246	4.85667e-005
		928.711	6.06853e-005	928.711	3.44071e-005
		928.711	3.44071e-005	928.711	3.44071e-005
				928.711	3.44071e-005
				930.176	5.90869e-005
				930.176	5.90869e-005
				930.176	5.90869e-005
				931.641	5.08242e-005
				931.641	5.08242e-005
				931.641	5.08242e-005
		933.105	5.7923e-005	933.105	4.91641e-005
		933.105	4.91641e-005	933.105	4.91641e-005
				933.105	4.91641e-005
		934.57	7.84107e-005	934.57	6.47612e-005
		934.57	6.47612e-005	934.57	6.47612e-005
				934.57	6.47612e-005
				936.035	9.03432e-005
				936.035	9.03432e-005
				936.035	9.03432e-005
937.5	1.26917e-005			937.5	1.72038e-006
937.5	1.72038e-006			937.5	1.72038e-006
				937.5	1.72038e-006
		938.965	4.07294e-005	938.965	3.63252e-005
		938.965	3.63252e-005	938.965	3.63252e-005
				938.965	3.63252e-005
				940.43	4.45373e-005
				940.43	4.45373e-005
				940.43	4.45373e-005
				941.895	2.46252e-005
				941.895	2.46252e-005
				941.895	2.46252e-005
				943.359	4.39061e-005
				943.359	4.39061e-005
				943.359	4.39061e-005
		944.824	5.46039e-005	944.824	1.81539e-005
		944.824	1.81539e-005	944.824	1.81539e-005
				944.824	1.81539e-005
				946.289	3.22316e-005
				946.289	3.22316e-005
				946.289	3.22316e-005
				947.754	3.17207e-005
				947.754	3.17207e-005
				947.754	3.17207e-005
		949.219	6.62451e-005	949.219	5.03374e-005
		949.219	5.03374e-005	949.219	5.03374e-005
				949.219	5.03374e-005
				950.684	5.26565e-005
				950.684	5.26565e-005
				950.684	5.26565e-005
		952.148	3.88848e-005	952.148	3.74016e-005
		952.148	3.74016e-005	952.148	3.74016e-005
				952.148	3.74016e-005
				953.613	4.15294e-005
				953.613	4.15294e-005
				953.613	4.15294e-005
				955.078	4.8326e-005
				955.078	4.8326e-005
				955.078	4.8326e-005
				956.543	2.1566e-005
				956.543	2.1566e-005
				956.543	2.1566e-005
				958.008	4.82414e-005
				958.008	4.82414e-005
				958.008	4.82414e-005
		959.473	5.12499e-005	959.473	3.21723e-005
		959.473	3.21723e-005	959.473	3.21723e-005
				959.473	3.21723e-005
				960.938	4.17978e-005
				960.938	4.17978e-005
				960.938	4.17978e-005
				962.402	3.77355e-005
				962.402	3.77355e-005
				962.402	3.77355e-005
		963.867	6.18985e-005	963.867	1.36795e-005
		963.867	1.36795e-005	963.867	1.36795e-005
				963.867	1.36795e-005
				965.332	6.96888e-005
				965.332	6.96888e-005
				965.332	6.96888e-005
		966.797	2.73431e-005	966.797	1.33622e-005
		966.797	1.33622e-005	966.797	1.33622e-005
				966.797	1.33622e-005
		968.262	4.44952e-005	968.262	2.02681e-005
		968.262	2.02681e-005	968.262	2.02681e-005
				968.262	2.02681e-005
				969.727	7.9253e-005
				969.727	7.9253e-005
				969.727	7.9253e-005
				971.191	5.42228e-005
				971.191	5.42228e-005
				971.191	5.42228e-005
		972.656	3.47043e-005	972.656	2.66883e-005
		972.656	2.66883e-005	972.656	2.66883e-005
				972.656	2.66883e-005
				974.121	3.71217e-005
				974.121	3.71217e-005
				974.121	3.71217e-005
				975.586	3.95932e-005
				975.586	3.95932e-005
				975.586	3.95932e-005
				977.051	2.59829e-005
				977.051	2.59829e-005
				977.051	2.59829e-005
		978.516	2.92059e-005	978.516	2.90051e-005
		978.516	2.90051e-005	978.516	2.90051e-005
				978.516	2.90051e-005
		979.98	1.98454e-005	979.98	1.33053e-005
		979.98	1.33053e-005	979.98	1.33053e-005
				979.98	1.33053e-005
				981.445	5.99051e-005
				981.445	5.99051e-005
				981.445	5.99051e-005
		982.91	7.03175e-005	982.91	2.92536e-005
		982.91	2.92536e-005	982.91	2.92536e-005
				982.91	2.92536e-005
				984.375	4.83099e-005
				984.375	4.83099e-005
				984.375	4.83099e-005
		985.84	3.82609e-005	985.84	2.57745e-005
		985.84	2.57745e-005	985.84	2.57745e-005
				985.84	2.57745e-005
				987.305	3.33881e-005
				987.305	3.33881e-005
				987.305	3.33881e-005
		988.77	3.57554e-005	988.77	3.34921e-005
		988.77	3.34921e-005	988.77	3.34921e-005
				988.77	3.34921e-005
				990.234	1.50697e-005
				990.234	1.50697e-005
				990.234	1.50697e-005
		991.699	3.75996e-005	991.699	2.71202e-005
		991.699	2.71202e-005	991.699	2.71202e-005
				991.699	2.71202e-005
				993.164	2.46136e-005
				993.164	2.46136e-005
				993.164	2.46136e-005
				994.629	3.22019e-005
				994.629	3.22019e-005
				994.629	3.22019e-005
		996.094	3.81183e-005	996.094	2.64001e-005
		996.094	2.64001e-005	996.094	2.64001e-005
				996.094	2.64001e-005
		997.559	4.28192e-005	997.559	3.9111e-005
		997.559	3.9111e-005	997.559	3.9111e-005
				997.559	3.9111e-005
		999.023	2.08395e-005	999.023	1.46051e-005
		999.023	1.46051e-005	999.023	1.46051e-005
				999.023	1.46051e-005
		1000.49	1.08425e-005	1000.49	9.04619e-006
		1000.49	9.04619e-006	1000.49	9.04619e-006
				1000.49	9.04619e-006
		1001.95	4.24442e-005	1001.95	3.31865e-005
		1001.95	3.31865e-005	1001.95	3.31865e-005
				1001.95	3.31865e-005
				1003.42	4.72827e-005
				1003.42	4.72827e-005
				1003.42	4.72827e-005
				1004.88	6.77445e-005
				1004.88	6.77445e-005
				1004.88	6.77445e-005
				1006.35	2.8766e-005
				1006.35	2.8766e-005
				1006.35	2.8766e-005
		1007.81	4.71591e-005	1007.81	4.43892e-005
		1007.81	4.43892e-005	1007.81	4.43892e-005
				1007.81	4.43892e-005
				1009.28	6.78744e-005
				1009.28	6.78744e-005
				1009.28	6.78744e-005
				1010.74	3.06396e-005
				1010.74	3.06396e-005
				1010.74	3.06396e-005
		1012.21	2.45877e-005	1012.21	2.17785e-005
		1012.21	2.17785e-005	1012.21	2.17785e-005
				1012.21	2.17785e-005
				1013.67	4.90074e-005
				1013.67	4.90074e-005
				1013.67	4.90074e-005
				1015.14	6.80723e-005
				1015.14	6.80723e-005
				1015.14	6.80723e-005
				1016.6	4.88846e-005
				1016.6	4.88846e-005
				1016.6	4.88846e-005
				1018.07	4.584e-005
				1018.07	4.584e-005
				1018.07	4.584e-005
				1019.53	5.40573e-005
				1019.53	5.40573e-005
				1019.53	5.40573e-005
		1021	5.11531e-005	1021	1.48059e-005
		1021	1.48059e-005	1021	1.48059e-005
				1021	1.48059e-005
1022.46	4.31248e-005			1022.46	1.67098e-005
1022.46	1.67098e-005			1022.46	1.67098e-005
				1022.46	1.67098e-005
		1023.93	2.26845e-005	1023.93	1.84283e-005
		1023.93	1.84283e-005	1023.93	1.84283e-005
				1023.93	1.84283e-005
		1025.39	3.07531e-005	1025.39	2.96208e-005
		1025.39	2.96208e-005	1025.39	2.96208e-005
				1025.39	2.96208e-005
				1026.86	3.71703e-005
				1026.86	3.71703e-005
				1026.86	3.71703e-005
		1028.32	5.46052e-005	1028.32	5.05381e-005
		1028.32	5.05381e-005	1028.32	5.05381e-005
				1028.32	5.05381e-005
		1029.79	5.09143e-005	1029.79	1.41875e-005
		1029.79	1.41875e-005	1029.79	1.41875e-005
				1029.79	1.41875e-005
				1031.25	6.43753e-005
				1031.25	6.43753e-005
				1031.25	6.43753e-005
		1032.71	3.82828e-005	1032.71	9.26591e-006
		1032.71	9.26591e-006	1032.71	9.26591e-006
				1032.71	9.26591e-006
				1034.18	3.08907e-005
				1034.18	3.08907e-005
				1034.18	3.08907e-005
		1035.64	5.17977e-005	1035.64	3.53753e-005
		1035.64	3.53753e-005	1035.64	3.53753e-005
				1035.64	3.53753e-005
		1037.11	5.29276e-005	1037.11	2.51313e-005
		1037.11	2.51313e-005	1037.11	2.51313e-005
				1037.11	2.51313e-005
		1038.57	7.52546e-005	1038.57	4.39891e-005
		1038.57	4.39891e-005	1038.57	4.39891e-005
				1038.57	4.39891e-005
		1040.04	1.28899e-005	1040.04	1.02018e-005
		1040.04	1.02018e-005	1040.04	1.02018e-005
				1040.04	1.02018e-005
		1041.5	4.09105e-005	1041.5	2.94777e-005
		1041.5	2.94777e-005	1041.5	2.94777e-005
				1041.5	2.94777e-005
		1042.97	3.14903e-005	1042.97	2.48169e-005
		1042.97	2.48169e-005	1042.97	2.48169e-005
				1042.97	2.48169e-005
				1044.43	3.66492e-005
				1044.43	3.66492e-005
				1044.43	3.66492e-005
		1045.9	4.96196e-005	1045.9	3.17486e-005
		1045.9	3.17486e-005	1045.9	3.17486e-005
				1045.9	3.17486e-005
				1047.36	9.22811e-005
				1047.36	9.22811e-005
				1047.36	9.22811e-005
				1048.83	4.87097e-005
				1048.83	4.87097e-005
				1048.83	4.87097e-005
				1050.29	6.6968e-005
				1050.29	6.6968e-005
				1050.29	6.6968e-005
1051.76	5.51764e-005			1051.76	1.74139e-005
1051.76	1.74139e-005			1051.76	1.74139e-005
				1051.76	1.74139e-005
				1053.22	3.88092e-005
				1053.22	3.88092e-005
				1053.22	3.88092e-005
		1054.69	4.20819e-005	1054.69	2.13106e-005
		1054.69	2.13106e-005	1054.69	2.13106e-005
				1054.69	2.13106e-005
				1056.15	3.90581e-005
				1056.15	3.90581e-005
				1056.15	3.90581e-005
				1057.62	6.30427e-005
				1057.62	6.30427e-005
				1057.62	6.30427e-005
		1059.08	2.70786e-005	1059.08	1.61487e-005
		1059.08	1.61487e-005	1059.08	1.61487e-005
				1059.08	1.61487e-005
		1060.55	3.28995e-005	1060.55	5.64557e-006
		1060.55	5.64557e-006	1060.55	5.64557e-006
				1060.55	5.64557e-006
		1062.01	4.03009e-005	1062.01	3.14575e-005
		1062.01	3.14575e-005	1062.01	3.14575e-005
				1062.01	3.14575e-005
		1063.48	6.04501e-005	1063.48	2.12201e-005
		1063.48	2.12201e-005	1063.48	2.12201e-005
				1063.48	2.12201e-005
				1064.94	5.34081e-005
				1064.94	5.34081e-005
				1064.94	5.34081e-005
				1066.41	5.57739e-005
				1066.41	5.57739e-005
				1066.41	5.57739e-005
		1067.87	5.68948e-005	1067.87	4.12187e-005
		1067.87	4.12187e-005	1067.87	4.12187e-005
				1067.87	4.12187e-005
		1069.34	5.27096e-005	1069.34	2.30528e-005
		1069.34	2.30528e-005	1069.34	2.30528e-005
				1069.34	2.30528e-005
				1070.8	5.08928e-005
				1070.8	5.08928e-005
				1070.8	5.08928e-005
		1072.27	3.43886e-005	1072.27	2.43237e-005
		1072.27	2.43237e-005	1072.27	2.43237e-005
				1072.27	2.43237e-005
				1073.73	5.31628e-005
				1073.73	5.31628e-005
				1073.73	5.31628e-005
				1075.2	5.4188e-005
				1075.2	5.4188e-005
				1075.2	5.4188e-005
		1076.66	4.16827e-005	1076.66	9.76432e-006
		1076.66	9.76432e-006	1076.66	9.76432e-006
				1076.66	9.76432e-006
		1078.13	0.000100488	1078.13	2.03749e-005
		1078.13	2.03749e-005	1078.13	2.03749e-005
				1078.13	2.03749e-005
		1079.59	6.12511e-005	1079.59	2.72221e-005
		1079.59	2.72221e-005	1079.59	2.72221e-005
				1079.59	2.72221e-005
				1081.05	3.83785e-005
				1081.05	3.83785e-005
				1081.05	3.83785e-005
1082.52	2.93723e-005			1082.52	2.2128e-005
1082.52	2.2128e-005			1082.52	2.2128e-005
				1082.52	2.2128e-005
				1083.98	5.07748e-005
				1083.98	5.07748e-005
				1083.98	5.07748e-005
		1085.45	2.31254e-005	1085.45	2.30803e-005
		1085.45	2.30803e-005	1085.45	2.30803e-005
				1085.45	2.30803e-005
		1086.91	6.10849e-005	1086.91	4.84875e-005
		1086.91	4.84875e-005	1086.91	4.84875e-005
				1086.91	4.84875e-005
				1088.38	5.2745e-005
				1088.38	5.2745e-005
				1088.38	5.2745e-005
				1089.84	5.3107e-005
				1089.84	5.3107e-005
				1089.84	5.3107e-005
				1091.31	4.2973e-005
				1091.31	4.2973e-005
				1091.31	4.2973e-005
				1092.77	3.89448e-005
				1092.77	3.89448e-005
				1092.77	3.89448e-005
				1094.24	8.89673e-005
				1094.24	8.89673e-005
				1094.24	8.89673e-005
		1095.7	4.82749e-005	1095.7	1.52618e-005
		1095.7	1.52618e-005	1095.7	1.52618e-005
				1095.7	1.52618e-005
		1097.17	3.18039e-005	1097.17	2.0717e-005
		1097.17	2.0717e-005	1097.17	2.0717e-005
				1097.17	2.0717e-005
				1098.63	4.02415e-005
				1098.63	4.02415e-005
				1098.63	4.02415e-005
				1100.1	5.67577e-005
				1100.1	5.67577e-005
				1100.1	5.67577e-005
				1101.56	3.56113e-005
				1101.56	3.56113e-005
				1101.56	3.56113e-005
				1103.03	4.01135e-005
				1103.03	4.01135e-005
				1103.03	4.01135e-005
		1104.49	4.22753e-005	1104.49	3.26364e-005
		1104.49	3.26364e-005	1104.49	3.26364e-005
				1104.49	3.26364e-005
		1105.96	5.20933e-005	1105.96	4.65169e-005
		1105.96	4.65169e-005	1105.96	4.65169e-005
				1105.96	4.65169e-005
				1107.42	7.14152e-005
				1107.42	7.14152e-005
				1107.42	7.14152e-005
		1108.89	8.27433e-005	1108.89	9.11448e-006
		1108.89	9.11448e-006	1108.89	9.11448e-006
				1108.89	9.11448e-006
				1110.35	6.16607e-005
				1110.35	6.16607e-005
				1110.35	6.16607e-005
		1111.82	4.35951e-005	1111.82	1.5901e-005
		1111.82	1.5901e-005	1111.82	1.5901e-005
				1111.82	1.5901e-005
		1113.28	4.55789e-005	1113.28	3.73305e-005
		1113.28	3.73305e-005	1113.28	3.73305e-005
				1113.28	3.73305e-005
1114.75	1.65324e-005			1114.75	9.93826e-006
1114.75	9.93826e-006			1114.75	9.93826e-006
				1114.75	9.93826e-006
				1116.21	4.01854e-005
				1116.21	4.01854e-005
				1116.21	4.01854e-005
				1117.68	4.09606e-005
				1117.68	4.09606e-005
				1117.68	4.09606e-005
		1119.14	4.41342e-005	1119.14	2.69362e-005
		1119.14	2.69362e-005	1119.14	2.69362e-005
				1119.14	2.69362e-005
				1120.61	4.68488e-005
				1120.61	4.68488e-005
				1120.61	4.68488e-005
				1122.07	6.60232e-005
				1122.07	6.60232e-005
				1122.07	6.60232e-005
				1123.54	2.82854e-005
				1123.54	2.82854e-005
				1123.54	2.82854e-005
				1125	3.31771e-005
				1125	3.31771e-005
				1125	3.31771e-005
				1126.46	2.0426e-005
				1126.46	2.0426e-005
				1126.46	2.0426e-005
		1127.93	1.34621e-005	1127.93	6.04834e-006
		1127.93	6.04834e-006	1127.93	6.04834e-006
				1127.93	6.04834e-006
		1129.39	7.01346e-005	1129.39	4.30094e-005
		1129.39	4.30094e-005	1129.39	4.30094e-005
				1129.39	4.30094e-005
				1130.86	3.59741e-005
				1130.86	3.59741e-005
				1130.86	3.59741e-005
				1132.32	4.05988e-005
				1132.32	4.05988e-005
				1132.32	4.05988e-005
				1133.79	7.2116e-005
				1133.79	7.2116e-005
				1133.79	7.2116e-005
				1135.25	5.5003e-005
				1135.25	5.5003e-005
				1135.25	5.5003e-005
				1136.72	5.19049e-005
				1136.72	5.19049e-005
				1136.72	5.19049e-005
				1138.18	2.31626e-005
				1138.18	2.31626e-005
				1138.18	2.31626e-005
		1139.65	3.20387e-005	1139.65	2.71201e-005
		1139.65	2.71201e-005	1139.65	2.71201e-005
				1139.65	2.71201e-005
				1141.11	3.60792e-005
				1141.11	3.60792e-005
				1141.11	3.60792e-005
		1142.58	4.51802e-005	1142.58	6.17245e-006
		1142.58	6.17245e-006	1142.58	6.17245e-006
				1142.58	6.17245e-006
		1144.04	5.81005e-005	1144.04	3.45273e-005
		1144.04	3.45273e-005	1144.04	3.45273e-005
				1144.04	3.45273e-005
				1145.51	5.51168e-005
				1145.51	5.51168e-005
				1145.51	5.51168e-005
1146.97	4.50522e-005			1146.97	2.28673e-005
1146.97	2.28673e-005			1146.97	2.28673e-005
				1146.97	2.28673e-005
		1148.44	2.59509e-005	1148.44	1.9916e-005
		1148.44	1.9916e-005	1148.44	1.9916e-005
				1148.44	1.9916e-005
		1149.9	5.14076e-005	1149.9	1.1384e-005
		1149.9	1.1384e-005	1149.9	1.1384e-005
				1149.9	1.1384e-005
		1151.37	7.26154e-005	1151.37	5.20959e-005
		1151.37	5.20959e-005	1151.37	5.20959e-005
				1151.37	5.20959e-005
		1152.83	4.95657e-005	1152.83	1.64228e-005
		1152.83	1.64228e-005	1152.83	1.64228e-005
				1152.83	1.64228e-005
		1154.3	6.5427e-005	1154.3	1.73405e-005
		1154.3	1.73405e-005	1154.3	1.73405e-005
				1154.3	1.73405e-005
				1155.76	2.75842e-005
				1155.76	2.75842e-005
				1155.76	2.75842e-005
				1157.23	3.34165e-005
				1157.23	3.34165e-005
				1157.23	3.34165e-005
		1158.69	4.26371e-005	1158.69	3.36609e-005
		1158.69	3.36609e-005	1158.69	3.36609e-005
				1158.69	3.36609e-005
		1160.16	7.89685e-006	1160.16	6.00334e-006
		1160.16	6.00334e-006	1160.16	6.00334e-006
				1160.16	6.00334e-006
				1161.62	4.98041e-005
				1161.62	4.98041e-005
				1161.62	4.98041e-005
		1163.09	8.20354e-005	1163.09	4.18366e-005
		1163.09	4.18366e-005	1163.09	4.18366e-005
				1163.09	4.18366e-005
				1164.55	3.29071e-005
				1164.55	3.29071e-005
				1164.55	3.29071e-005
				1166.02	2.3801e-005
				1166.02	2.3801e-005
				1166.02	2.3801e-005
		1167.48	4.78647e-005	1167.48	2.93231e-005
		1167.48	2.93231e-005	1167.48	2.93231e-005
				1167.48	2.93231e-005
		1168.95	1.79428e-005	1168.95	1.16371e-005
		1168.95	1.16371e-005	1168.95	1.16371e-005
				1168.95	1.16371e-005
				1170.41	4.7628e-005
				1170.41	4.7628e-005
				1170.41	4.7628e-005
				1171.88	2.82248e-005
				1171.88	2.82248e-005
				1171.88	2.82248e-005
		1173.34	7.24848e-005	1173.34	1.8571e-005
		1173.34	1.8571e-005	1173.34	1.8571e-005
				1173.34	1.8571e-005
				1174.8	2.91036e-005
				1174.8	2.91036e-005
				1174.8	2.91036e-005
				1176.27	5.98781e-005
				1176.27	5.98781e-005
				1176.27	5.98781e-005
		1177.73	1.84346e-005	1177.73	1.00253e-005
		1177.73	1.00253e-005	1177.73	1.00253e-005
				1177.73	1.00253e-005
				1179.2	4.82821e-005
				1179.2	4.82821e-005
				1179.2	4.82821e-005
1180.66	6.22323e-005			1180.66	1.46817e-005
1180.66	1.46817e-005			1180.66	1.46817e-005
				1180.66	1.46817e-005
				1182.13	1.04582e-005
				1182.13	1.04582e-005
				1182.13	1.04582e-005
				1183.59	1.93213e-005
				1183.59	1.93213e-005
				1183.59	1.93213e-005
		1185.06	4.87347e-005	1185.06	2.84977e-005
		1185.06	2.84977e-005	1185.06	2.84977e-005
				1185.06	2.84977e-005
				1186.52	3.10197e-005
				1186.52	3.10197e-005
				1186.52	3.10197e-005
				1187.99	3.56989e-005
				1187.99	3.56989e-005
				1187.99	3.56989e-005
		1189.45	3.35876e-005	1189.45	2.6916e-005
		1189.45	2.6916e-005	1189.45	2.6916e-005
				1189.45	2.6916e-005
				1190.92	3.79606e-005
				1190.92	3.79606e-005
				1190.92	3.79606e-005
				1192.38	2.86881e-005
				1192.38	2.86881e-005
				1192.38	2.86881e-005
		1193.85	2.10721e-005	1193.85	2.05804e-005
		1193.85	2.05804e-005	1193.85	2.05804e-005
				1193.85	2.05804e-005
		1195.31	3.68094e-005	1195.31	2.55872e-005
		1195.31	2.55872e-005	1195.31	2.55872e-005
				1195.31	2.55872e-005
				1196.78	4.14254e-005
				1196.78	4.14254e-005
				1196.78	4.14254e-005
		1198.24	4.1836e-005	1198.24	2.32727e-005
		1198.24	2.32727e-005	1198.24	2.32727e-005
				1198.24	2.32727e-005
				1199.71	5.69248e-005
				1199.71	5.69248e-005
				1199.71	5.69248e-005
		1201.17	5.06081e-005	1201.17	3.41747e-005
		1201.17	3.41747e-005	1201.17	3.41747e-005
				1201.17	3.41747e-005
		1202.64	6.2572e-005	1202.64	2.34433e-005
		1202.64	2.34433e-005	1202.64	2.34433e-005
				1202.64	2.34433e-005
		1204.1	3.64301e-005	1204.1	2.50103e-005
		1204.1	2.50103e-005	1204.1	2.50103e-005
				1204.1	2.50103e-005
				1205.57	4.25756e-005
				1205.57	4.25756e-005
				1205.57	4.25756e-005
				1207.03	4.82542e-005
				1207.03	4.82542e-005
				1207.03	4.82542e-005
		1208.5	5.59277e-005	1208.5	4.98978e-005
		1208.5	4.98978e-005	1208.5	4.98978e-005
				1208.5	4.98978e-005
		1209.96	3.96973e-005	1209.96	2.72543e-005
		1209.96	2.72543e-005	1209.96	2.72543e-005
				1209.96	2.72543e-005
				1211.43	2.80269e-005
				1211.43	2.80269e-005
				1211.43	2.80269e-005
				1212.89	6.61605e-005
				1212.89	6.61605e-005
				1212.89	6.61605e-005
		1214.36	3.97932e-005	1214.36	1.56015e-005
		1214.36	1.56015e-005	1214.36	1.56015e-005
				1214.36	1.56015e-005
				1215.82	9.43741e-005
				1215.82	9.43741e-005
				1215.82	9.43741e-005
		1217.29	5.28479e-005	1217.29	2.89338e-005
		1217.29	2.89338e-005	1217.29	2.89338e-005
				1217.29	2.89338e-005
		1218.75	5.2034e-005	1218.75	2.42475e-005
		1218.75	2.42475e-005	1218.75	2.42475e-005
				1218.75	2.42475e-005
		1220.21	2.31521e-005	1220.21	2.12037e-005
		1220.21	2.12037e-005	1220.21	2.12037e-005
				1220.21	2.12037e-005
				1221.68	3.34221e-005
				1221.68	3.34221e-005
				1221.68	3.34221e-005
		1223.14	5.28708e-005	1223.14	3.11853e-005
		1223.14	3.11853e-005	1223.14	3.11853e-005
				1223.14	3.11853e-005
				1224.61	3.98154e-005
				1224.61	3.98154e-005
				1224.61	3.98154e-005
		1226.07	6.6701e-005	1226.07	4.18306e-005
		1226.07	4.18306e-005	1226.07	4.18306e-005
				1226.07	4.18306e-005
		1227.54	4.21343e-005	1227.54	1.72524e-005
		1227.54	1.72524e-005	1227.54	1.72524e-005
				1227.54	1.72524e-005
				1229	6.51369e-005
				1229	6.51369e-005
				1229	6.51369e-005
				1230.47	3.76482e-005
				1230.47	3.76482e-005
				1230.47	3.76482e-005
		1231.93	7.77879e-005	1231.93	3.78533e-005
		1231.93	3.78533e-005	1231.93	3.78533e-005
				1231.93	3.78533e-005
		1233.4	3.47191e-005	1233.4	1.89268e-005
		1233.4	1.89268e-005	1233.4	1.89268e-005
				1233.4	1.89268e-005
				1234.86	4.78216e-005
				1234.86	4.78216e-005
				1234.86	4.78216e-005
				1236.33	1.67992e-005
				1236.33	1.67992e-005
				1236.33	1.67992e-005
				1237.79	2.82661e-005
				1237.79	2.82661e-005
				1237.79	2.82661e-005
				1239.26	2.3521e-005
				1239.26	2.3521e-005
				1239.26	2.3521e-005
		1240.72	3.07985e-005	1240.72	2.5589e-005
		1240.72	2.5589e-005	1240.72	2.5589e-005
				1240.72	2.5589e-005
		1242.19	4.81755e-005	1242.19	2.41807e-005
		1242.19	2.41807e-005	1242.19	2.41807e-005
				1242.19	2.41807e-005
		1243.65	5.4285e-005	1243.65	2.96798e-005
		1243.65	2.96798e-005	1243.65	2.96798e-005
				1243.65	2.96798e-005
		1245.12	5.64278e-005	1245.12	1.9606e-005
		1245.12	1.9606e-005	1245.12	1.9606e-005
				1245.12	1.9606e-005
				1246.58	5.19386e-005
				1246.58	5.19386e-005
				1246.58	5.19386e-005
				1248.05	4.34261e-005
				1248.05	4.34261e-005
				1248.05	4.34261e-005
				1249.51	4.28027e-005
				1249.51	4.28027e-005
				1249.51	4.28027e-005
1250.98	3.06251e-005			1250.98	1.42933e-005
1250.98	1.42933e-005			1250.98	1.42933e-005
				1250.98	1.42933e-005
		1252.44	3.16474e-005	1252.44	3.06725e-005
		1252.44	3.06725e-005	1252.44	3.06725e-005
				1252.44	3.06725e-005
				1253.91	5.66545e-005
				1253.91	5.66545e-005
				1253.91	5.66545e-005
		1255.37	4.35238e-005	1255.37	3.89069e-005
		1255.37	3.89069e-005	1255.37	3.89069e-005
				1255.37	3.89069e-005
		1256.84	2.62118e-005	1256.84	3.1376e-006
		1256.84	3.1376e-006	1256.84	3.1376e-006
				1256.84	3.1376e-006
				1258.3	4.66304e-005
				1258.3	4.66304e-005
				1258.3	4.66304e-005
		1259.77	3.56999e-005	1259.77	1.33451e-005
		1259.77	1.33451e-005	1259.77	1.33451e-005
				1259.77	1.33451e-005
		1261.23	1.68384e-005	1261.23	9.62176e-006
		1261.23	9.62176e-006	1261.23	9.62176e-006
				1261.23	9.62176e-006
				1262.7	4.91054e-005
				1262.7	4.91054e-005
				1262.7	4.91054e-005
		1264.16	1.41513e-005	1264.16	5.10071e-006
		1264.16	5.10071e-006	1264.16	5.10071e-006
				1264.16	5.10071e-006
		1265.63	3.21138e-005	1265.63	2.53957e-005
		1265.63	2.53957e-005	1265.63	2.53957e-005
				1265.63	2.53957e-005
		1267.09	5.77301e-005	1267.09	1.26739e-005
		1267.09	1.26739e-005	1267.09	1.26739e-005
				1267.09	1.26739e-005
		1268.55	5.85317e-005	1268.55	2.24444e-005
		1268.55	2.24444e-005	1268.55	2.24444e-005
				1268.55	2.24444e-005
		1270.02	2.35215e-005	1270.02	1.49176e-005
		1270.02	1.49176e-005	1270.02	1.49176e-005
				1270.02	1.49176e-005
		1271.48	5.80144e-005	1271.48	2.61102e-005
		1271.48	2.61102e-005	1271.48	2.61102e-005
				1271.48	2.61102e-005
		1272.95	4.64755e-005	1272.95	3.24494e-005
		1272.95	3.24494e-005	1272.95	3.24494e-005
				1272.95	3.24494e-005
		1274.41	3.05206e-005	1274.41	1.59752e-005
		1274.41	1.59752e-005	1274.41	1.59752e-005
				1274.41	1.59752e-005
		1275.88	3.75913e-005	1275.88	2.52037e-005
		1275.88	2.52037e-005	1275.88	2.52037e-005
				1275.88	2.52037e-005
				1277.34	2.72826e-005
				1277.34	2.72826e-005
				1277.34	2.72826e-005
		1278.81	2.58482e-005	1278.81	1.62463e-005
		1278.81	1.62463e-005	1278.81	1.62463e-005
				1278.81	1.62463e-005
		1280.27	6.84135e-005	1280.27	2.4851e-005
		1280.27	2.4851e-005	1280.27	2.4851e-005
				1280.27	2.4851e-005
				1281.74	2.90962e-005
				1281.74	2.90962e-005
				1281.74	2.90962e-005
				1283.2	2.80018e-005
				1283.2	2.80018e-005
				1283.2	2.80018e-005
				1284.67	3.70188e-005
				1284.67	3.70188e-005
				1284.67	3.70188e-005
				1286.13	4.26325e-005
				1286.13	4.26325e-005
				1286.13	4.26325e-005
1287.6	4.49289e-005			1287.6	2.05756e-005
1287.6	2.05756e-005			1287.6	2.05756e-005
				1287.6	2.05756e-005
		1289.06	2.3095e-005	1289.06	3.99004e-006
		1289.06	3.99004e-006	1289.06	3.99004e-006
				1289.06	3.99004e-006
		1290.53	3.39432e-005	1290.53	3.08705e-005
		1290.53	3.08705e-005	1290.53	3.08705e-005
				1290.53	3.08705e-005
		1291.99	1.69637e-005	1291.99	1.53422e-005
		1291.99	1.53422e-005	1291.99	1.53422e-005
				1291.99	1.53422e-005
		1293.46	2.80173e-005	1293.46	1.17746e-005
		1293.46	1.17746e-005	1293.46	1.17746e-005
				1293.46	1.17746e-005
				1294.92	2.78157e-005
				1294.92	2.78157e-005
				1294.92	2.78157e-005
		1296.39	3.43546e-005	1296.39	2.25682e-006
		1296.39	2.25682e-006	1296.39	2.25682e-006
				1296.39	2.25682e-006
				1297.85	4.52417e-005
				1297.85	4.52417e-005
				1297.85	4.52417e-005
				1299.32	3.03426e-005
				1299.32	3.03426e-005
				1299.32	3.03426e-005
		1300.78	3.61831e-005	1300.78	2.37525e-005
		1300.78	2.37525e-005	1300.78	2.37525e-005
				1300.78	2.37525e-005
				1302.25	4.18999e-005
				1302.25	4.18999e-005
				1302.25	4.18999e-005
				1303.71	1.53168e-005
				1303.71	1.53168e-005
				1303.71	1.53168e-005
				1305.18	4.72748e-005
				1305.18	4.72748e-005
				1305.18	4.72748e-005
		1306.64	4.93663e-005	1306.64	1.58354e-005
		1306.64	1.58354e-005	1306.64	1.58354e-005
				1306.64	1.58354e-005
				1308.11	4.97422e-005
				1308.11	4.97422e-005
				1308.11	4.97422e-005
		1309.57	3.57334e-005	1309.57	2.14826e-005
		1309.57	2.14826e-005	1309.57	2.14826e-005
				1309.57	2.14826e-005
				1311.04	3.77941e-005
				1311.04	3.77941e-005
				1311.04	3.77941e-005
		1312.5	2.41124e-005	1312.5	2.3605e-005
		1312.5	2.3605e-005	1312.5	2.3605e-005
				1312.5	2.3605e-005
				1313.96	2.59063e-005
				1313.96	2.59063e-005
				1313.96	2.59063e-005
				1315.43	4.56409e-005
				1315.43	4.56409e-005
				1315.43	4.56409e-005
		1316.89	1.7103e-005	1316.89	1.28991e-005
		1316.89	1.28991e-005	1316.89	1.28991e-005
				1316.89	1.28991e-005
				1318.36	3.2146e-005
				1318.36	3.2146e-005
				1318.36	3.2146e-005
				1319.82	3.56034e-005
				1319.82	3.56034e-005
				1319.82	3.56034e-005
		1321.29	3.1626e-005	1321.29	9.20426e-006
		1321.29	9.20426e-006	1321.29	9.20426e-006
				1321.29	9.20426e-006
		1322.75	7.26571e-006	1322.75	1.43046e-006
		1322.75	1.43046e-006	1322.75	1.43046e-006
				1322.75	1.43046e-006
		1324.22	2.13912e-005	1324.22	4.96835e-006
		1324.22	4.96835e-006	1324.22	4.96835e-006
				1324.22	4.96835e-006
1325.68	7.26707e-005			1325.68	1.7103e-005
1325.68	1.7103e-005			1325.68	1.7103e-005
				1325.68	1.7103e-005
				1327.15	5.154e-005
				1327.15	5.154e-005
				1327.15	5.154e-005
		1328.61	4.15109e-005	1328.61	6.70491e-006
		1328.61	6.70491e-006	1328.61	6.70491e-006
				1328.61	6.70491e-006
		1330.08	3.87611e-005	1330.08	1.48318e-005
		1330.08	1.48318e-005	1330.08	1.48318e-005
				1330.08	1.48318e-005
		1331.54	3.73408e-005	1331.54	2.67483e-005
		1331.54	2.67483e-005	1331.54	2.67483e-005
				1331.54	2.67483e-005
				1333.01	1.97151e-005
				1333.01	1.97151e-005
				1333.01	1.97151e-005
		1334.47	1.30829e-005	1334.47	5.23924e-006
		1334.47	5.23924e-006	1334.47	5.23924e-006
				1334.47	5.23924e-006
				1335.94	4.42167e-005
				1335.94	4.42167e-005
				1335.94	4.42167e-005
		1337.4	7.45633e-005	1337.4	4.41219e-005
		1337.4	4.41219e-005	1337.4	4.41219e-005
				1337.4	4.41219e-005
				1338.87	1.59445e-005
				1338.87	1.59445e-005
				1338.87	1.59445e-005
		1340.33	4.96124e-005	1340.33	3.72646e-005
		1340.33	3.72646e-005	1340.33	3.72646e-005
				1340.33	3.72646e-005
				1341.8	3.5901e-005
				1341.8	3.5901e-005
				1341.8	3.5901e-005
				1343.26	1.91746e-005
				1343.26	1.91746e-005
				1343.26	1.91746e-005
		1344.73	3.70299e-005	1344.73	1.54953e-005
		1344.73	1.54953e-005	1344.73	1.54953e-005
				1344.73	1.54953e-005
		1346.19	4.48796e-005	1346.19	2.42043e-005
		1346.19	2.42043e-005	1346.19	2.42043e-005
				1346.19	2.42043e-005
				1347.66	7.86306e-005
				1347.66	7.86306e-005
				1347.66	7.86306e-005
				1349.12	3.15948e-005
				1349.12	3.15948e-005
				1349.12	3.15948e-005
		1350.59	4.02686e-005	1350.59	1.38686e-005
		1350.59	1.38686e-005	1350.59	1.38686e-005
				1350.59	1.38686e-005
				1352.05	2.82437e-005
				1352.05	2.82437e-005
				1352.05	2.82437e-005
		1353.52	4.3856e-005	1353.52	1.00932e-005
		1353.52	1.00932e-005	1353.52	1.00932e-005
				1353.52	1.00932e-005
				1354.98	2.94112e-005
				1354.98	2.94112e-005
				1354.98	2.94112e-005
				1356.45	3.3152e-005
				1356.45	3.3152e-005
				1356.45	3.3152e-005
		1357.91	3.57891e-005	1357.91	3.24302e-005
		1357.91	3.24302e-005	1357.91	3.24302e-005
				1357.91	3.24302e-005
				1359.38	2.44916e-005
				1359.38	2.44916e-005
				1359.38	2.44916e-005
		1360.84	3.85786e-005	1360.84	1.53041e-005
		1360.84	1.53041e-005	1360.84	1.53041e-005
				1360.84	1.53041e-005
				1362.3	1.91915e-005
				1362.3	1.91915e-005
				1362.3	1.91915e-005
				1363.77	3.29995e-005
				1363.77	3.29995e-005
				1363.77	3.29995e-005
				1365.23	3.20632e-005
				1365.23	3.20632e-005
				1365.23	3.20632e-005
		1366.7	3.28968e-005	1366.7	2.70921e-005
		1366.7	2.70921e-005	1366.7	2.70921e-005
				1366.7	2.70921e-005
				1368.16	2.00042e-005
				1368.16	2.00042e-005
				1368.16	2.00042e-005
		1369.63	1.51682e-005	1369.63	1.49921e-005
		1369.63	1.49921e-005	1369.63	1.49921e-005
				1369.63	1.49921e-005
		1371.09	2.96271e-005	1371.09	1.88919e-005
		1371.09	1.88919e-005	1371.09	1.88919e-005
				1371.09	1.88919e-005
		1372.56	3.57056e-005	1372.56	3.49448e-005
		1372.56	3.49448e-005	1372.56	3.49448e-005
				1372.56	3.49448e-005
				1374.02	2.53608e-005
				1374.02	2.53608e-005
				1374.02	2.53608e-005
		1375.49	4.29098e-005	1375.49	2.7592e-005
		1375.49	2.7592e-005	1375.49	2.7592e-005
				1375.49	2.7592e-005
		1376.95	2.63745e-005	1376.95	2.26643e-005
		1376.95	2.26643e-005	1376.95	2.26643e-005
				1376.95	2.26643e-005
				1378.42	2.12161e-005
				1378.42	2.12161e-005
				1378.42	2.12161e-005
		1379.88	2.73627e-005	1379.88	1.74759e-005
		1379.88	1.74759e-005	1379.88	1.74759e-005
				1379.88	1.74759e-005
		1381.35	3.50887e-005	1381.35	2.39854e-005
		1381.35	2.39854e-005	1381.35	2.39854e-005
				1381.35	2.39854e-005
				1382.81	3.91934e-005
				1382.81	3.91934e-005
				1382.81	3.91934e-005
		1384.28	6.27044e-005	1384.28	1.8361e-005
		1384.28	1.8361e-005	1384.28	1.8361e-005
				1384.28	1.8361e-005
		1385.74	1.94289e-005	1385.74	1.71769e-005
		1385.74	1.71769e-005	1385.74	1.71769e-005
				1385.74	1.71769e-005
				1387.21	3.01526e-005
				1387.21	3.01526e-005
				1387.21	3.01526e-005
		1388.67	5.71889e-005	1388.67	1.70186e-005
		1388.67	1.70186e-005	1388.67	1.70186e-005
				1388.67	1.70186e-005
				1390.14	3.18792e-005
				1390.14	3.18792e-005
				1390.14	3.18792e-005
		1391.6	1.95145e-005	1391.6	6.33774e-006
		1391.6	6.33774e-006	1391.6	6.33774e-006
				1391.6	6.33774e-006
		1393.07	2.0154e-005	1393.07	1.92736e-005
		1393.07	1.92736e-005	1393.07	1.92736e-005
				1393.07	1.92736e-005
		1394.53	7.58422e-005	1394.53	2.04446e-005
		1394.53	2.04446e-005	1394.53	2.04446e-005
				1394.53	2.04446e-005
				1396	1.69097e-005
				1396	1.69097e-005
				1396	1.69097e-005
		1397.46	5.98556e-005	1397.46	3.31875e-005
		1397.46	3.31875e-005	1397.46	3.31875e-005
				1397.46	3.31875e-005
		1398.93	2.49793e-005	1398.93	1.93941e-005
		1398.93	1.93941e-005	1398.93	1.93941e-005
				1398.93	1.93941e-005
		1400.39	2.25713e-005	1400.39	1.97021e-005
		1400.39	1.97021e-005	1400.39	1.97021e-005
				1400.39	1.97021e-005
				1401.86	3.42384e-005
				1401.86	3.42384e-005
				1401.86	3.42384e-005
		1403.32	3.22067e-005	1403.32	1.95896e-005
		1403.32	1.95896e-005	1403.32	1.95896e-005
				1403.32	1.95896e-005
				1404.79	4.2425e-005
				1404.79	4.2425e-005
				1404.79	4.2425e-005
				1406.25	4.50729e-005
				1406.25	4.50729e-005
				1406.25	4.50729e-005
				1407.71	1.89527e-005
				1407.71	1.89527e-005
				1407.71	1.89527e-005
		1409.18	2.87354e-005	1409.18	2.44907e-005
		1409.18	2.44907e-005	1409.18	2.44907e-005
				1409.18	2.44907e-005
		1410.64	5.93884e-005	1410.64	1.07847e-005
		1410.64	1.07847e-005	1410.64	1.07847e-005
				1410.64	1.07847e-005
		1412.11	5.37855e-005	1412.11	2.0403e-005
		1412.11	2.0403e-005	1412.11	2.0403e-005
				1412.11	2.0403e-005
				1413.57	3.15985e-005
				1413.57	3.15985e-005
				1413.57	3.15985e-005
		1415.04	3.17757e-005	1415.04	9.4187e-006
		1415.04	9.4187e-006	1415.04	9.4187e-006
				1415.04	9.4187e-006
				1416.5	1.18331e-005
				1416.5	1.18331e-005
				1416.5	1.18331e-005
		1417.97	4.63089e-005	1417.97	2.42008e-005
		1417.97	2.42008e-005	1417.97	2.42008e-005
				1417.97	2.42008e-005
		1419.43	5.99302e-005	1419.43	1.71026e-005
		1419.43	1.71026e-005	1419.43	1.71026e-005
				1419.43	1.71026e-005
				1420.9	1.80624e-005
				1420.9	1.80624e-005
				1420.9	1.80624e-005
				1422.36	3.08363e-005
				1422.36	3.08363e-005
				1422.36	3.08363e-005
				1423.83	1.57392e-005
				1423.83	1.57392e-005
				1423.83	1.57392e-005
		1425.29	5.26538e-005	1425.29	3.00274e-005
		1425.29	3.00274e-005	1425.29	3.00274e-005
				1425.29	3.00274e-005
				1426.76	3.04033e-005
				1426.76	3.04033e-005
				1426.76	3.04033e-005
		1428.22	5.71684e-005	1428.22	1.60442e-005
		1428.22	1.60442e-005	1428.22	1.60442e-005
				1428.22	1.60442e-005
				1429.69	4.60985e-005
				1429.69	4.60985e-005
				1429.69	4.60985e-005
				1431.15	2.66319e-005
				1431.15	2.66319e-005
				1431.15	2.66319e-005
		1432.62	4.61282e-005	1432.62	7.5927e-006
		1432.62	7.5927e-006	1432.62	7.5927e-006
				1432.62	7.5927e-006
				1434.08	4.08084e-005
				1434.08	4.08084e-005
				1434.08	4.08084e-005
				1435.55	2.85849e-005
				1435.55	2.85849e-005
				1435.55	2.85849e-005
		1437.01	2.94028e-005	1437.01	1.35631e-005
		1437.01	1.35631e-005	1437.01	1.35631e-005
				1437.01	1.35631e-005
		1438.48	2.31533e-005	1438.48	1.78376e-005
		1438.48	1.78376e-005	1438.48	1.78376e-005
				1438.48	1.78376e-005
		1439.94	1.73461e-005	1439.94	1.60917e-005
		1439.94	1.60917e-005	1439.94	1.60917e-005
				1439.94	1.60917e-005
		1441.41	6.9683e-005	1441.41	1.72332e-005
		1441.41	1.72332e-005	1441.41	1.72332e-005
				1441.41	1.72332e-005
				1442.87	3.67789e-005
				1442.87	3.67789e-005
				1442.87	3.67789e-005
		1444.34	3.48659e-005	1444.34	2.67978e-005
		1444.34	2.67978e-005	1444.34	2.67978e-005
				1444.34	2.67978e-005
				1445.8	4.47771e-005
				1445.8	4.47771e-005
				1445.8	4.47771e-005
		1447.27	3.43273e-005	1447.27	1.95523e-005
		1447.27	1.95523e-005	1447.27	1.95523e-005
				1447.27	1.95523e-005
		1448.73	4.76958e-005	1448.73	1.9366e-005
		1448.73	1.9366e-005	1448.73	1.9366e-005
				1448.73	1.9366e-005
		1450.2	4.19851e-005	1450.2	8.20545e-006
		1450.2	8.20545e-006	1450.2	8.20545e-006
				1450.2	8.20545e-006
				1451.66	1.52492e-005
				1451.66	1.52492e-005
				1451.66	1.52492e-005
				1453.13	1.80122e-005
				1453.13	1.80122e-005
				1453.13	1.80122e-005
				1454.59	4.73207e-005
				1454.59	4.73207e-005
				1454.59	4.73207e-005
		1456.05	6.4795e-005	1456.05	2.01393e-005
		1456.05	2.01393e-005	1456.05	2.01393e-005
				1456.05	2.01393e-005
		1457.52	1.54078e-005	1457.52	1.32903e-005
		1457.52	1.32903e-005	1457.52	1.32903e-005
				1457.52	1.32903e-005
				1458.98	2.23174e-005
				1458.98	2.23174e-005
				1458.98	2.23174e-005
		1460.45	3.09714e-005	1460.45	2.15334e-005
		1460.45	2.15334e-005	1460.45	2.15334e-005
				1460.45	2.15334e-005
				1461.91	1.04336e-005
				1461.91	1.04336e-005
				1461.91	1.04336e-005
		1463.38	7.57063e-006	1463.38	6.05813e-006
		1463.38	6.05813e-006	1463.38	6.05813e-006
				1463.38	6.05813e-006
				1464.84	8.72097e-006
				1464.84	8.72097e-006
				1464.84	8.72097e-006
				1466.31	2.83027e-005
				1466.31	2.83027e-005
				1466.31	2.83027e-005
				1467.77	2.3665e-005
				1467.77	2.3665e-005
				1467.77	2.3665e-005
		1469.24	2.79782e-005	1469.24	2.67104e-005
		1469.24	2.67104e-005	1469.24	2.67104e-005
				1469.24	2.67104e-005
				1470.7	2.90828e-005
				1470.7	2.90828e-005
				1470.7	2.90828e-005
				1472.17	2.68768e-005
				1472.17	2.68768e-005
				1472.17	2.68768e-005
		1473.63	3.84941e-005	1473.63	1.02697e-005
		1473.63	1.02697e-005	1473.63	1.02697e-005
				1473.63	1.02697e-005
				1475.1	4.08957e-005
				1475.1	4.08957e-005
				1475.1	4.08957e-005
		1476.56	3.87429e-005	1476.56	3.07017e-005
		1476.56	3.07017e-005	1476.56	3.07017e-005
				1476.56	3.07017e-005
				1478.03	3.2836e-005
				1478.03	3.2836e-005
				1478.03	3.2836e-005
				1479.49	3.03772e-005
				1479.49	3.03772e-005
				1479.49	3.03772e-005
				1480.96	2.59376e-005
				1480.96	2.59376e-005
				1480.96	2.59376e-005
		1482.42	4.50686e-005	1482.42	3.30456e-005
		1482.42	3.30456e-005	1482.42	3.30456e-005
				1482.42	3.30456e-005
				1483.89	3.29122e-005
				1483.89	3.29122e-005
				1483.89	3.29122e-005
				1485.35	3.5842e-005
				1485.35	3.5842e-005
				1485.35	3.5842e-005
		1486.82	3.69784e-005	1486.82	1.50394e-005
		1486.82	1.50394e-005	1486.82	1.50394e-005
				1486.82	1.50394e-005
				1488.28	2.29607e-005
				1488.28	2.29607e-005
				1488.28	2.29607e-005
		1489.75	1.61214e-005	1489.75	1.29459e-005
		1489.75	1.29459e-005	1489.75	1.29459e-005
				1489.75	1.29459e-005
		1491.21	1.90496e-005	1491.21	9.17408e-006
		1491.21	9.17408e-006	1491.21	9.17408e-006
				1491.21	9.17408e-006
				1492.68	3.2296e-005
				1492.68	3.2296e-005
				1492.68	3.2296e-005
				1494.14	1.92336e-005
				1494.14	1.92336e-005
				1494.14	1.92336e-005
				1495.61	3.51344e-005
				1495.61	3.51344e-005
				1495.61	3.51344e-005
				1497.07	2.65086e-005
				1497.07	2.65086e-005
				1497.07	2.65086e-005
		1498.54	2.94406e-005	1498.54	2.57509e-005
		1498.54	2.57509e-005	1498.54	2.57509e-005
				1498.54	2.57509e-005
		1500	1.72427e-005	1500	1.18033e-005
		1500	1.18033e-005	1500	1.18033e-005
				1500	1.18033e-005
				1501.46	3.00551e-005
				1501.46	3.00551e-005
				1501.46	3.00551e-005
		1502.93	4.39042e-005	1502.93	4.01573e-005
		1502.93	4.01573e-005	1502.93	4.01573e-005
				1502.93	4.01573e-005
				1504.39	1.48603e-005
				1504.39	1.48603e-005
				1504.39	1.48603e-005
				1505.86	1.69007e-005
				1505.86	1.69007e-005
				1505.86	1.69007e-005
				1507.32	1.87739e-005
				1507.32	1.87739e-005
				1507.32	1.87739e-005
				1508.79	3.75391e-005
				1508.79	3.75391e-005
				1508.79	3.75391e-005
				1510.25	5.57827e-005
				1510.25	5.57827e-005
				1510.25	5.57827e-005
		1511.72	2.78155e-005	1511.72	1.15497e-005
		1511.72	1.15497e-005	1511.72	1.15497e-005
				1511.72	1.15497e-005
		1513.18	2.91313e-005	1513.18	4.178e-006
		1513.18	4.178e-006	1513.18	4.178e-006
				1513.18	4.178e-006
				1514.65	2.13717e-005
				1514.65	2.13717e-005
				1514.65	2.13717e-005
				1516.11	2.96894e-005
				1516.11	2.96894e-005
				1516.11	2.96894e-005
		1517.58	3.45969e-005	1517.58	2.14904e-005
		1517.58	2.14904e-005	1517.58	2.14904e-005
				1517.58	2.14904e-005
				1519.04	3.42326e-005
				1519.04	3.42326e-005
				1519.04	3.42326e-005
		1520.51	2.11049e-005	1520.51	5.26871e-006
		1520.51	5.26871e-006	1520.51	5.26871e-006
				1520.51	5.26871e-006
		1521.97	1.99228e-005	1521.97	7.06687e-006
		1521.97	7.06687e-006	1521.97	7.06687e-006
				1521.97	7.06687e-006
		1523.44	1.34661e-005	1523.44	1.11747e-005
		1523.44	1.11747e-005	1523.44	1.11747e-005
				1523.44	1.11747e-005
		1524.9	3.40724e-005	1524.9	6.59043e-006
		1524.9	6.59043e-006	1524.9	6.59043e-006
				1524.9	6.59043e-006
		1526.37	4.31429e-005	1526.37	1.81295e-005
		1526.37	1.81295e-005	1526.37	1.81295e-005
				1526.37	1.81295e-005
		1527.83	7.91558e-006	1527.83	4.5859e-006
		1527.83	4.5859e-006	1527.83	4.5859e-006
				1527.83	4.5859e-006
				1529.3	1.54001e-005
				1529.3	1.54001e-005
				1529.3	1.54001e-005
				1530.76	3.69715e-005
				1530.76	3.69715e-005
				1530.76	3.69715e-005
				1532.23	3.40117e-005
				1532.23	3.40117e-005
				1532.23	3.40117e-005
		1533.69	2.53156e-005	1533.69	1.66935e-005
		1533.69	1.66935e-005	1533.69	1.66935e-005
				1533.69	1.66935e-005
				1535.16	4.26415e-005
				1535.16	4.26415e-005
				1535.16	4.26415e-005
		1536.62	3.25371e-005	1536.62	1.69644e-005
		1536.62	1.69644e-005	1536.62	1.69644e-005
				1536.62	1.69644e-005
		1538.09	1.81116e-005	1538.09	1.78963e-005
		1538.09	1.78963e-005	1538.09	1.78963e-005
				1538.09	1.78963e-005
				1539.55	3.0735e-005
				1539.55	3.0735e-005
				1539.55	3.0735e-005
		1541.02	1.40016e-005	1541.02	1.27761e-005
		1541.02	1.27761e-005	1541.02	1.27761e-005
				1541.02	1.27761e-005
		1542.48	2.40782e-005	1542.48	1.73781e-005
		1542.48	1.73781e-005	1542.48	1.73781e-005
				1542.48	1.73781e-005
		1543.95	2.97749e-005	1543.95	2.06315e-005
		1543.95	2.06315e-005	1543.95	2.06315e-005
				1543.95	2.06315e-005
				1545.41	1.66945e-005
				1545.41	1.66945e-005
				1545.41	1.66945e-005
				1546.88	2.78938e-005
				1546.88	2.78938e-005
				1546.88	2.78938e-005
		1548.34	3.41643e-005	1548.34	1.87584e-005
		1548.34	1.87584e-005	1548.34	1.87584e-005
				1548.34	1.87584e-005
				1549.8	2.30029e-005
				1549.8	2.30029e-005
				1549.8	2.30029e-005
		1551.27	3.946e-005	1551.27	3.09414e-005
		1551.27	3.09414e-005	1551.27	3.09414e-005
				1551.27	3.09414e-005
		1552.73	3.04975e-005	1552.73	6.75626e-006
		1552.73	6.75626e-006	1552.73	6.75626e-006
				1552.73	6.75626e-006
				1554.2	1.86596e-005
				1554.2	1.86596e-005
				1554.2	1.86596e-005
		1555.66	3.66562e-005	1555.66	1.30089e-005
		1555.66	1.30089e-005	1555.66	1.30089e-005
				1555.66	1.30089e-005
		1557.13	2.22469e-005	1557.13	1.59848e-005
		1557.13	1.59848e-005	1557.13	1.59848e-005
				1557.13	1.59848e-005
				1558.59	3.20214e-005
				1558.59	3.20214e-005
				1558.59	3.20214e-005
				1560.06	2.23318e-005
				1560.06	2.23318e-005
				1560.06	2.23318e-005
		1561.52	5.91447e-005	1561.52	4.21408e-005
		1561.52	4.21408e-005	1561.52	4.21408e-005
				1561.52	4.21408e-005
		1562.99	1.7829e-005	1562.99	9.99209e-006
		1562.99	9.99209e-006	1562.99	9.99209e-006
				1562.99	9.99209e-006
				1564.45	4.62121e-005
				1564.45	4.62121e-005
				1564.45	4.62121e-005
		1565.92	4.38128e-005	1565.92	5.51453e-006
		1565.92	5.51453e-006	1565.92	5.51453e-006
				1565.92	5.51453e-006
		1567.38	2.07424e-005	1567.38	6.20475e-006
		1567.38	6.20475e-006	1567.38	6.20475e-006
				1567.38	6.20475e-006
		1568.85	1.92465e-005	1568.85	7.61537e-006
		1568.85	7.61537e-006	1568.85	7.61537e-006
				1568.85	7.61537e-006
		1570.31	2.12925e-005	1570.31	6.45126e-006
		1570.31	6.45126e-006	1570.31	6.45126e-006
				1570.31	6.45126e-006
		1571.78	4.41328e-005	1571.78	2.72413e-005
		1571.78	2.72413e-005	1571.78	2.72413e-005
				1571.78	2.72413e-005
				1573.24	1.05078e-005
				1573.24	1.05078e-005
				1573.24	1.05078e-005
				1574.71	2.92956e-005
				1574.71	2.92956e-005
				1574.71	2.92956e-005
1576.17	4.53597e-005			1576.17	1.07922e-005
1576.17	1.07922e-005			1576.17	1.07922e-005
				1576.17	1.07922e-005
		1577.64	2.05325e-005	1577.64	1.95031e-005
		1577.64	1.95031e-005	1577.64	1.95031e-005
				1577.64	1.95031e-005
				1579.1	3.28878e-005
				1579.1	3.28878e-005
				1579.1	3.28878e-005
		1580.57	1.07465e-005	1580.57	3.78324e-006
		1580.57	3.78324e-006	1580.57	3.78324e-006
				1580.57	3.78324e-006
				1582.03	1.49652e-005
				1582.03	1.49652e-005
				1582.03	1.49652e-005
				1583.5	3.26848e-005
				1583.5	3.26848e-005
				1583.5	3.26848e-005
		1584.96	3.80276e-005	1584.96	2.34422e-005
		1584.96	2.34422e-005	1584.96	2.34422e-005
				1584.96	2.34422e-005
		1586.43	4.64192e-005	1586.43	2.63224e-005
		1586.43	2.63224e-005	1586.43	2.63224e-005
				1586.43	2.63224e-005
		1587.89	3.02568e-005	1587.89	1.10897e-005
		1587.89	1.10897e-005	1587.89	1.10897e-005
				1587.89	1.10897e-005
				1589.36	4.64048e-005
				1589.36	4.64048e-005
				1589.36	4.64048e-005
		1590.82	2.94994e-005	1590.82	1.65332e-005
		1590.82	1.65332e-005	1590.82	1.65332e-005
				1590.82	1.65332e-005
		1592.29	4.57556e-005	1592.29	3.72471e-005
		1592.29	3.72471e-005	1592.29	3.72471e-005
				1592.29	3.72471e-005
		1593.75	1.98844e-005	1593.75	1.07304e-005
		1593.75	1.07304e-005	1593.75	1.07304e-005
				1593.75	1.07304e-005
		1595.21	1.3703e-005	1595.21	8.94344e-006
		1595.21	8.94344e-006	1595.21	8.94344e-006
				1595.21	8.94344e-006
		1596.68	2.82946e-005	1596.68	2.42631e-005
		1596.68	2.42631e-005	1596.68	2.42631e-005
				1596.68	2.42631e-005
		1598.14	2.37957e-005	1598.14	1.62429e-005
		1598.14	1.62429e-005	1598.14	1.62429e-005
				1598.14	1.62429e-005
				1599.61	2.09773e-005
				1599.61	2.09773e-005
				1599.61	2.09773e-005
		1601.07	2.00836e-005	1601.07	5.57518e-006
		1601.07	5.57518e-006	1601.07	5.57518e-006
				1601.07	5.57518e-006
		1602.54	5.93766e-005	1602.54	5.66575e-006
		1602.54	5.66575e-006	1602.54	5.66575e-006
				1602.54	5.66575e-006
				1604	1.45115e-005
				1604	1.45115e-005
				1604	1.45115e-005
				1605.47	4.18316e-005
				1605.47	4.18316e-005
				1605.47	4.18316e-005
				1606.93	3.58715e-005
				1606.93	3.58715e-005
				1606.93	3.58715e-005
		1608.4	2.41362e-005	1608.4	2.30027e-005
		1608.4	2.30027e-005	1608.4	2.30027e-005
				1608.4	2.30027e-005
		1609.86	2.51013e-005	1609.86	1.95985e-005
		1609.86	1.95985e-005	1609.86	1.95985e-005
				1609.86	1.95985e-005
		1611.33	1.63854e-005	1611.33	9.90138e-006
		1611.33	9.90138e-006	1611.33	9.90138e-006
				1611.33	9.90138e-006
				1612.79	4.1911e-005
				1612.79	4.1911e-005
				1612.79	4.1911e-005
				1614.26	2.68535e-005
				1614.26	2.68535e-005
				1614.26	2.68535e-005
		1615.72	4.68268e-005	1615.72	2.24718e-005
		1615.72	2.24718e-005	1615.72	2.24718e-005
				1615.72	2.24718e-005
		1617.19	2.95494e-005	1617.19	6.39181e-006
		1617.19	6.39181e-006	1617.19	6.39181e-006
				1617.19	6.39181e-006
				1618.65	3.57823e-005
				1618.65	3.57823e-005
				1618.65	3.57823e-005
		1620.12	3.40059e-005	1620.12	1.54028e-005
		1620.12	1.54028e-005	1620.12	1.54028e-005
				1620.12	1.54028e-005
		1621.58	3.77249e-005	1621.58	1.56673e-005
		1621.58	1.56673e-005	1621.58	1.56673e-005
				1621.58	1.56673e-005
1623.05	3.29822e-005			1623.05	2.84177e-005
1623.05	2.84177e-005			1623.05	2.84177e-005
				1623.05	2.84177e-005
		1624.51	2.20806e-005	1624.51	1.00838e-005
		1624.51	1.00838e-005	1624.51	1.00838e-005
				1624.51	1.00838e-005
		1625.98	1.97377e-005	1625.98	5.66961e-006
		1625.98	5.66961e-006	1625.98	5.66961e-006
				1625.98	5.66961e-006
		1627.44	2.09013e-005	1627.44	7.20175e-006
		1627.44	7.20175e-006	1627.44	7.20175e-006
				1627.44	7.20175e-006
		1628.91	1.67001e-005	1628.91	2.96654e-006
		1628.91	2.96654e-006	1628.91	2.96654e-006
				1628.91	2.96654e-006
				1630.37	3.7979e-005
				1630.37	3.7979e-005
				1630.37	3.7979e-005
				1631.84	2.1615e-005
				1631.84	2.1615e-005
				1631.84	2.1615e-005
				1633.3	2.05459e-005
				1633.3	2.05459e-005
				1633.3	2.05459e-005
				1634.77	2.18103e-005
				1634.77	2.18103e-005
				1634.77	2.18103e-005
		1636.23	3.10968e-005	1636.23	2.11876e-005
		1636.23	2.11876e-005	1636.23	2.11876e-005
				1636.23	2.11876e-005
		1637.7	2.76881e-005	1637.7	1.56091e-005
		1637.7	1.56091e-005	1637.7	1.56091e-005
				1637.7	1.56091e-005
				1639.16	3.12089e-005
				1639.16	3.12089e-005
				1639.16	3.12089e-005
				1640.63	2.99709e-005
				1640.63	2.99709e-005
				1640.63	2.99709e-005
		1642.09	3.8629e-005	1642.09	2.57972e-005
		1642.09	2.57972e-005	1642.09	2.57972e-005
				1642.09	2.57972e-005
		1643.55	2.75278e-005	1643.55	2.55294e-005
		1643.55	2.55294e-005	1643.55	2.55294e-005
				1643.55	2.55294e-005
		1645.02	1.45972e-005	1645.02	7.94158e-006
		1645.02	7.94158e-006	1645.02	7.94158e-006
				1645.02	7.94158e-006
				1646.48	4.11556e-005
				1646.48	4.11556e-005
				1646.48	4.11556e-005
		1647.95	1.37548e-005	1647.95	1.29463e-005
		1647.95	1.29463e-005	1647.95	1.29463e-005
				1647.95	1.29463e-005
				1649.41	3.34203e-005
				1649.41	3.34203e-005
				1649.41	3.34203e-005
				1650.88	2.99293e-005
				1650.88	2.99293e-005
				1650.88	2.99293e-005
				1652.34	2.12049e-005
				1652.34	2.12049e-005
				1652.34	2.12049e-005
		1653.81	1.30176e-005	1653.81	1.29173e-005
		1653.81	1.29173e-005	1653.81	1.29173e-005
				1653.81	1.29173e-005
				1655.27	2.26063e-005
				1655.27	2.26063e-005
				1655.27	2.26063e-005
		1656.74	4.94225e-005	1656.74	2.58364e-005
		1656.74	2.58364e-005	1656.74	2.58364e-005
				1656.74	2.58364e-005
				1658.2	3.08613e-005
				1658.2	3.08613e-005
				1658.2	3.08613e-005
				1659.67	3.33386e-005
				1659.67	3.33386e-005
				1659.67	3.33386e-005
				1661.13	2.77357e-005
				1661.13	2.77357e-005
				1661.13	2.77357e-005
				1662.6	3.4377e-005
				1662.6	3.4377e-005
				1662.6	3.4377e-005
		1664.06	2.12824e-005	1664.06	7.4049e-006
		1664.06	7.4049e-006	1664.06	7.4049e-006
				1664.06	7.4049e-006
		1665.53	3.11079e-005	1665.53	2.25956e-005
		1665.53	2.25956e-005	1665.53	2.25956e-005
				1665.53	2.25956e-005
		1666.99	2.99725e-005	1666.99	2.10375e-005
		1666.99	2.10375e-005	1666.99	2.10375e-005
				1666.99	2.10375e-005
		1668.46	3.44297e-005	1668.46	7.01976e-006
		1668.46	7.01976e-006	1668.46	7.01976e-006
				1668.46	7.01976e-006
1669.92	1.24521e-005			1669.92	8.47105e-006
1669.92	8.47105e-006			1669.92	8.47105e-006
				1669.92	8.47105e-006
		1671.39	1.5666e-005	1671.39	1.17466e-005
		1671.39	1.17466e-005	1671.39	1.17466e-005
				1671.39	1.17466e-005
		1672.85	2.43931e-005	1672.85	2.0831e-005
		1672.85	2.0831e-005	1672.85	2.0831e-005
				1672.85	2.0831e-005
				1674.32	2.54933e-005
				1674.32	2.54933e-005
				1674.32	2.54933e-005
				1675.78	1.90055e-005
				1675.78	1.90055e-005
				1675.78	1.90055e-005
		1677.25	2.33835e-005	1677.25	1.53795e-005
		1677.25	1.53795e-005	1677.25	1.53795e-005
				1677.25	1.53795e-005
		1678.71	2.43149e-005	1678.71	2.01818e-005
		1678.71	2.01818e-005	1678.71	2.01818e-005
				1678.71	2.01818e-005
				1680.18	4.26453e-005
				1680.18	4.26453e-005
				1680.18	4.26453e-005
		1681.64	2.00487e-005	1681.64	8.42767e-006
		1681.64	8.42767e-006	1681.64	8.42767e-006
				1681.64	8.42767e-006
				1683.11	2.75397e-005
				1683.11	2.75397e-005
				1683.11	2.75397e-005
		1684.57	3.44917e-005	1684.57	2.71276e-005
		1684.57	2.71276e-005	1684.57	2.71276e-005
				1684.57	2.71276e-005
				1686.04	2.79218e-005
				1686.04	2.79218e-005
				1686.04	2.79218e-005
		1687.5	1.42554e-005	1687.5	1.05432e-005
		1687.5	1.05432e-005	1687.5	1.05432e-005
				1687.5	1.05432e-005
				1688.96	1.95813e-005
				1688.96	1.95813e-005
				1688.96	1.95813e-005
		1690.43	3.95177e-005	1690.43	1.96051e-005
		1690.43	1.96051e-005	1690.43	1.96051e-005
				1690.43	1.96051e-005
				1691.89	2.68176e-005
				1691.89	2.68176e-005
				1691.89	2.68176e-005
		1693.36	2.0351e-005	1693.36	1.69922e-005
		1693.36	1.69922e-005	1693.36	1.69922e-005
				1693.36	1.69922e-005
		1694.82	3.52235e-005	1694.82	2.77474e-005
		1694.82	2.77474e-005	1694.82	2.77474e-005
				1694.82	2.77474e-005
				1696.29	1.93646e-005
				1696.29	1.93646e-005
				1696.29	1.93646e-005
				1697.75	2.83141e-005
				1697.75	2.83141e-005
				1697.75	2.83141e-005
		1699.22	1.98263e-005	1699.22	1.7234e-005
		1699.22	1.7234e-005	1699.22	1.7234e-005
				1699.22	1.7234e-005
		1700.68	1.43969e-005	1700.68	4.90139e-006
		1700.68	4.90139e-006	1700.68	4.90139e-006
				1700.68	4.90139e-006
		1702.15	3.79191e-005	1702.15	2.51191e-005
		1702.15	2.51191e-005	1702.15	2.51191e-005
				1702.15	2.51191e-005
				1703.61	3.76649e-005
				1703.61	3.76649e-005
				1703.61	3.76649e-005
		1705.08	1.16475e-005	1705.08	9.04744e-006
		1705.08	9.04744e-006	1705.08	9.04744e-006
				1705.08	9.04744e-006
		1706.54	1.68756e-005	1706.54	1.23711e-005
		1706.54	1.23711e-005	1706.54	1.23711e-005
				1706.54	1.23711e-005
				1708.01	2.60946e-005
				1708.01	2.60946e-005
				1708.01	2.60946e-005
				1709.47	1.59152e-005
				1709.47	1.59152e-005
				1709.47	1.59152e-005
		1710.94	4.6577e-005	1710.94	7.56018e-006
		1710.94	7.56018e-006	1710.94	7.56018e-006
				1710.94	7.56018e-006
		1712.4	2.23016e-005	1712.4	1.83593e-005
		1712.4	1.83593e-005	1712.4	1.83593e-005
				1712.4	1.83593e-005
		1713.87	2.66923e-005	1713.87	1.64528e-005
		1713.87	1.64528e-005	1713.87	1.64528e-005
				1713.87	1.64528e-005
				1715.33	3.13529e-005
				1715.33	3.13529e-005
				1715.33	3.13529e-005
		1716.8	3.08554e-005	1716.8	3.36122e-006
		1716.8	3.36122e-006	1716.8	3.36122e-006
				1716.8	3.36122e-006
		1718.26	2.18426e-005	1718.26	1.84606e-005
		1718.26	1.84606e-005	1718.26	1.84606e-005
				1718.26	1.84606e-005
1719.73	2.00017e-005			1719.73	1.01996e-005
1719.73	1.01996e-005			1719.73	1.01996e-005
				1719.73	1.01996e-005
		1721.19	3.76772e-005	1721.19	2.34934e-005
		1721.19	2.34934e-005	1721.19	2.34934e-005
				1721.19	2.34934e-005
				1722.66	2.71054e-005
				1722.66	2.71054e-005
				1722.66	2.71054e-005
				1724.12	2.77437e-005
				1724.12	2.77437e-005
				1724.12	2.77437e-005
				1725.59	3.17337e-005
				1725.59	3.17337e-005
				1725.59	3.17337e-005
				1727.05	2.09249e-005
				1727.05	2.09249e-005
				1727.05	2.09249e-005
				1728.52	2.92705e-005
				1728.52	2.92705e-005
				1728.52	2.92705e-005
		1729.98	2.36403e-005	1729.98	9.44135e-006
		1729.98	9.44135e-006	1729.98	9.44135e-006
				1729.98	9.44135e-006
		1731.45	2.21381e-005	1731.45	5.62345e-006
		1731.45	5.62345e-006	1731.45	5.62345e-006
				1731.45	5.62345e-006
				1732.91	4.39515e-005
				1732.91	4.39515e-005
				1732.91	4.39515e-005
		1734.38	2.17069e-005	1734.38	1.85527e-005
		1734.38	1.85527e-005	1734.38	1.85527e-005
				1734.38	1.85527e-005
				1735.84	2.12102e-005
				1735.84	2.12102e-005
				1735.84	2.12102e-005
		1737.3	3.34103e-005	1737.3	2.42034e-006
		1737.3	2.42034e-006	1737.3	2.42034e-006
				1737.3	2.42034e-006
		1738.77	2.22342e-005	1738.77	2.64201e-006
		1738.77	2.64201e-006	1738.77	2.64201e-006
				1738.77	2.64201e-006
		1740.23	2.8585e-005	1740.23	3.83965e-006
		1740.23	3.83965e-006	1740.23	3.83965e-006
				1740.23	3.83965e-006
		1741.7	5.23725e-006	1741.7	2.12225e-006
		1741.7	2.12225e-006	1741.7	2.12225e-006
				1741.7	2.12225e-006
				1743.16	1.97094e-005
				1743.16	1.97094e-005
				1743.16	1.97094e-005
		1744.63	3.0178e-005	1744.63	9.27181e-006
		1744.63	9.27181e-006	1744.63	9.27181e-006
				1744.63	9.27181e-006
		1746.09	2.34938e-005	1746.09	1.57171e-005
		1746.09	1.57171e-005	1746.09	1.57171e-005
				1746.09	1.57171e-005
		1747.56	1.14891e-005	1747.56	3.66819e-006
		1747.56	3.66819e-006	1747.56	3.66819e-006
				1747.56	3.66819e-006
		1749.02	1.72951e-005	1749.02	6.54849e-006
		1749.02	6.54849e-006	1749.02	6.54849e-006
				1749.02	6.54849e-006
		1750.49	3.06698e-005	1750.49	5.62779e-006
		1750.49	5.62779e-006	1750.49	5.62779e-006
				1750.49	5.62779e-006
		1751.95	1.68915e-005	1751.95	7.78691e-006
		1751.95	7.78691e-006	1751.95	7.78691e-006
				1751.95	7.78691e-006
				1753.42	9.89069e-006
				1753.42	9.89069e-006
				1753.42	9.89069e-006
				1754.88	2.81928e-005
				1754.88	2.81928e-005
				1754.88	2.81928e-005
				1756.35	2.26721e-005
				1756.35	2.26721e-005
				1756.35	2.26721e-005
				1757.81	2.50774e-005
				1757.81	2.50774e-005
				1757.81	2.50774e-005
		1759.28	2.48942e-005	1759.28	5.96984e-006
		1759.28	5.96984e-006	1759.28	5.96984e-006
				1759.28	5.96984e-006
				1760.74	1.8556e-005
				1760.74	1.8556e-005
				1760.74	1.8556e-005
				1762.21	4.12314e-005
				1762.21	4.12314e-005
				1762.21	4.12314e-005
				1763.67	2.68802e-005
				1763.67	2.68802e-005
				1763.67	2.68802e-005
		1765.14	4.3805e-005	1765.14	3.72121e-005
		1765.14	3.72121e-005	1765.14	3.72121e-005
				1765.14	3.72121e-005
		1766.6	3.88069e-005	1766.6	1.30217e-005
		1766.6	1.30217e-005	1766.6	1.30217e-005
				1766.6	1.30217e-005
				1768.07	3.18706e-005
				1768.07	3.18706e-005
				1768.07	3.18706e-005
1769.53	1.94867e-005			1769.53	1.05518e-005
1769.53	1.05518e-005			1769.53	1.05518e-005
				1769.53	1.05518e-005
				1771	2.65723e-005
				1771	2.65723e-005
				1771	2.65723e-005
		1772.46	1.92894e-005	1772.46	9.42821e-006
		1772.46	9.42821e-006	1772.46	9.42821e-006
				1772.46	9.42821e-006
		1773.93	2.59444e-005	1773.93	2.01946e-005
		1773.93	2.01946e-005	1773.93	2.01946e-005
				1773.93	2.01946e-005
				1775.39	1.67924e-005
				1775.39	1.67924e-005
				1775.39	1.67924e-005
				1776.86	3.32194e-005
				1776.86	3.32194e-005
				1776.86	3.32194e-005
		1778.32	2.60699e-005	1778.32	1.18985e-005
		1778.32	1.18985e-005	1778.32	1.18985e-005
				1778.32	1.18985e-005
		1779.79	2.16442e-005	1779.79	8.92116e-006
		1779.79	8.92116e-006	1779.79	8.92116e-006
				1779.79	8.92116e-006
				1781.25	2.80154e-005
				1781.25	2.80154e-005
				1781.25	2.80154e-005
		1782.71	2.0887e-005	1782.71	1.23296e-005
		1782.71	1.23296e-005	1782.71	1.23296e-005
				1782.71	1.23296e-005
		1784.18	2.74564e-005	1784.18	1.8352e-005
		1784.18	1.8352e-005	1784.18	1.8352e-005
				1784.18	1.8352e-005
		1785.64	1.76943e-005	1785.64	2.57191e-006
		1785.64	2.57191e-006	1785.64	2.57191e-006
				1785.64	2.57191e-006
		1787.11	3.23767e-005	1787.11	5.13229e-006
		1787.11	5.13229e-006	1787.11	5.13229e-006
				1787.11	5.13229e-006
		1788.57	2.08177e-005	1788.57	1.13708e-005
		1788.57	1.13708e-005	1788.57	1.13708e-005
				1788.57	1.13708e-005
		1790.04	3.11615e-005	1790.04	6.58336e-006
		1790.04	6.58336e-006	1790.04	6.58336e-006
				1790.04	6.58336e-006
				1791.5	2.6352e-005
				1791.5	2.6352e-005
				1791.5	2.6352e-005
				1792.97	2.56757e-005
				1792.97	2.56757e-005
				1792.97	2.56757e-005
		1794.43	4.26346e-005	1794.43	8.70488e-006
		1794.43	8.70488e-006	1794.43	8.70488e-006
				1794.43	8.70488e-006
				1795.9	3.63962e-005
				1795.9	3.63962e-005
				1795.9	3.63962e-005
				1797.36	3.62812e-005
				1797.36	3.62812e-005
				1797.36	3.62812e-005
		1798.83	2.35774e-005	1798.83	1.99215e-005
		1798.83	1.99215e-005	1798.83	1.99215e-005
				1798.83	1.99215e-005
		1800.29	2.60117e-005	1800.29	3.4337e-006
		1800.29	3.4337e-006	1800.29	3.4337e-006
				1800.29	3.4337e-006
				1801.76	3.15853e-005
				1801.76	3.15853e-005
				1801.76	3.15853e-005
				1803.22	1.11734e-005
				1803.22	1.11734e-005
				1803.22	1.11734e-005
		1804.69	1.78623e-005	1804.69	1.65556e-005
		1804.69	1.65556e-005	1804.69	1.65556e-005
				1804.69	1.65556e-005
				1806.15	2.38375e-005
				1806.15	2.38375e-005
				1806.15	2.38375e-005
		1807.62	1.49262e-005	1807.62	2.78322e-006
		1807.62	2.78322e-006	1807.62	2.78322e-006
				1807.62	2.78322e-006
				1809.08	1.8299e-005
				1809.08	1.8299e-005
				1809.08	1.8299e-005
		1810.55	2.09814e-005	1810.55	6.2688e-006
		1810.55	6.2688e-006	1810.55	6.2688e-006
				1810.55	6.2688e-006
		1812.01	1.72148e-005	1812.01	9.51103e-006
		1812.01	9.51103e-006	1812.01	9.51103e-006
				1812.01	9.51103e-006
		1813.48	1.42719e-005	1813.48	5.19137e-006
		1813.48	5.19137e-006	1813.48	5.19137e-006
				1813.48	5.19137e-006
				1814.94	2.23683e-005
				1814.94	2.23683e-005
				1814.94	2.23683e-005
				1816.41	1.91637e-005
				1816.41	1.91637e-005
				1816.41	1.91637e-005
		1817.87	2.4319e-005	1817.87	1.30674e-005
		1817.87	1.30674e-005	1817.87	1.30674e-005
				1817.87	1.30674e-005
				1819.34	1.4518e-005
				1819.34	1.4518e-005
				1819.34	1.4518e-005
		1820.8	2.92941e-005	1820.8	8.69179e-006
		1820.8	8.69179e-006	1820.8	8.69179e-006
				1820.8	8.69179e-006
				1822.27	2.5268e-005
				1822.27	2.5268e-005
				1822.27	2.5268e-005
		1823.73	1.42842e-005	1823.73	1.18871e-005
		1823.73	1.18871e-005	1823.73	1.18871e-005
				1823.73	1.18871e-005
				1825.2	1.50925e-005
				1825.2	1.50925e-005
				1825.2	1.50925e-005
				1826.66	2.16772e-005
				1826.66	2.16772e-005
				1826.66	2.16772e-005
				1828.13	3.29704e-005
				1828.13	3.29704e-005
				1828.13	3.29704e-005
		1829.59	2.81717e-005	1829.59	2.24302e-005
		1829.59	2.24302e-005	1829.59	2.24302e-005
				1829.59	2.24302e-005
				1831.05	2.13877e-005
				1831.05	2.13877e-005
				1831.05	2.13877e-005
		1832.52	2.77557e-005	1832.52	2.06607e-005
		1832.52	2.06607e-005	1832.52	2.06607e-005
				1832.52	2.06607e-005
				1833.98	2.42057e-005
				1833.98	2.42057e-005
				1833.98	2.42057e-005
				1835.45	1.51861e-005
				1835.45	1.51861e-005
				1835.45	1.51861e-005
		1836.91	2.58697e-005	1836.91	3.45845e-006
		1836.91	3.45845e-006	1836.91	3.45845e-006
				1836.91	3.45845e-006
				1838.38	2.00056e-005
				1838.38	2.00056e-005
				1838.38	2.00056e-005
		1839.84	2.17997e-005	1839.84	1.77398e-005
		1839.84	1.77398e-005	1839.84	1.77398e-005
				1839.84	1.77398e-005
				1841.31	3.503e-005
				1841.31	3.503e-005
				1841.31	3.503e-005
		1842.77	1.15686e-005	1842.77	8.26729e-006
		1842.77	8.26729e-006	1842.77	8.26729e-006
				1842.77	8.26729e-006
		1844.24	2.14873e-005	1844.24	1.35402e-005
		1844.24	1.35402e-005	1844.24	1.35402e-005
				1844.24	1.35402e-005
		1845.7	1.55154e-005	1845.7	1.30944e-005
		1845.7	1.30944e-005	1845.7	1.30944e-005
				1845.7	1.30944e-005
		1847.17	3.41416e-005	1847.17	1.72011e-005
		1847.17	1.72011e-005	1847.17	1.72011e-005
				1847.17	1.72011e-005
				1848.63	3.57667e-005
				1848.63	3.57667e-005
				1848.63	3.57667e-005
				1850.1	2.32514e-005
				1850.1	2.32514e-005
				1850.1	2.32514e-005
				1851.56	1.37361e-005
				1851.56	1.37361e-005
				1851.56	1.37361e-005
		1853.03	1.24722e-005	1853.03	4.37562e-006
		1853.03	4.37562e-006	1853.03	4.37562e-006
				1853.03	4.37562e-006
		1854.49	1.06026e-005	1854.49	8.85651e-006
		1854.49	8.85651e-006	1854.49	8.85651e-006
				1854.49	8.85651e-006
		1855.96	6.88426e-006	1855.96	6.54679e-007
		1855.96	6.54679e-007	1855.96	6.54679e-007
				1855.96	6.54679e-007
		1857.42	2.78499e-005	1857.42	1.09864e-005
		1857.42	1.09864e-005	1857.42	1.09864e-005
				1857.42	1.09864e-005
				1858.89	2.40651e-005
				1858.89	2.40651e-005
				1858.89	2.40651e-005
				1860.35	4.40837e-005
				1860.35	4.40837e-005
				1860.35	4.40837e-005
				1861.82	2.67064e-005
				1861.82	2.67064e-005
				1861.82	2.67064e-005
		1863.28	2.30878e-005	1863.28	1.05109e-005
		1863.28	1.05109e-005	1863.28	1.05109e-005
				1863.28	1.05109e-005
		1864.75	2.41388e-005	1864.75	1.27946e-005
		1864.75	1.27946e-005	1864.75	1.27946e-005
				1864.75	1.27946e-005
				1866.21	2.62429e-005
				1866.21	2.62429e-005
				1866.21	2.62429e-005
		1867.68	2.42327e-005	1867.68	1.77497e-005
		1867.68	1.77497e-005	1867.68	1.77497e-005
				1867.68	1.77497e-005
		1869.14	3.13264e-005	1869.14	9.87723e-006
		1869.14	9.87723e-006	1869.14	9.87723e-006
				1869.14	9.87723e-006
				1870.61	3.26235e-005
				1870.61	3.26235e-005
				1870.61	3.26235e-005
				1872.07	1.77745e-005
				1872.07	1.77745e-005
				1872.07	1.77745e-005
		1873.54	3.314e-005	1873.54	2.22955e-005
		1873.54	2.22955e-005	1873.54	2.22955e-005
				1873.54	2.22955e-005
				1875	1.6325e-005
				1875	1.6325e-005
				1875	1.6325e-005
		1876.46	9.14949e-006	1876.46	5.37277e-006
		1876.46	5.37277e-006	1876.46	5.37277e-006
				1876.46	5.37277e-006
		1877.93	2.6466e-005	1877.93	1.2401e-005
		1877.93	1.2401e-005	1877.93	1.2401e-005
				1877.93	1.2401e-005
		1879.39	2.3513e-005	1879.39	2.17502e-005
		1879.39	2.17502e-005	1879.39	2.17502e-005
				1879.39	2.17502e-005
		1880.86	3.05845e-005	1880.86	2.08186e-005
		1880.86	2.08186e-005	1880.86	2.08186e-005
				1880.86	2.08186e-005
		1882.32	1.70518e-005	1882.32	8.54071e-006
		1882.32	8.54071e-006	1882.32	8.54071e-006
				1882.32	8.54071e-006
		1883.79	4.2724e-005	1883.79	2.30494e-005
		1883.79	2.30494e-005	1883.79	2.30494e-005
				1883.79	2.30494e-005
		1885.25	1.25861e-005	1885.25	1.05579e-005
		1885.25	1.05579e-005	1885.25	1.05579e-005
				1885.25	1.05579e-005
				1886.72	1.72124e-005
				1886.72	1.72124e-005
				1886.72	1.72124e-005
		1888.18	1.09935e-005	1888.18	6.33913e-006
		1888.18	6.33913e-006	1888.18	6.33913e-006
				1888.18	6.33913e-006
		1889.65	1.63365e-005	1889.65	8.25385e-006
		1889.65	8.25385e-006	1889.65	8.25385e-006
				1889.65	8.25385e-006
		1891.11	2.08561e-005	1891.11	1.19296e-005
		1891.11	1.19296e-005	1891.11	1.19296e-005
				1891.11	1.19296e-005
		1892.58	1.73384e-005	1892.58	1.4502e-005
		1892.58	1.4502e-005	1892.58	1.4502e-005
				1892.58	1.4502e-005
		1894.04	3.94129e-005	1894.04	2.64007e-005
		1894.04	2.64007e-005	1894.04	2.64007e-005
				1894.04	2.64007e-005
		1895.51	2.69912e-005	1895.51	1.72885e-005
		1895.51	1.72885e-005	1895.51	1.72885e-005
				1895.51	1.72885e-005
				1896.97	2.53036e-005
				1896.97	2.53036e-005
				1896.97	2.53036e-005
		1898.44	2.7868e-005	1898.44	6.91972e-006
		1898.44	6.91972e-006	1898.44	6.91972e-006
				1898.44	6.91972e-006
		1899.9	1.72004e-005	1899.9	1.51164e-005
		1899.9	1.51164e-005	1899.9	1.51164e-005
				1899.9	1.51164e-005
		1901.37	1.77383e-005	1901.37	9.48112e-006
		1901.37	9.48112e-006	1901.37	9.48112e-006
				1901.37	9.48112e-006
				1902.83	2.79848e-005
				1902.83	2.79848e-005
				1902.83	2.79848e-005
		1904.3	3.99272e-005	1904.3	8.3916e-006
		1904.3	8.3916e-006	1904.3	8.3916e-006
				1904.3	8.3916e-006
		1905.76	2.37373e-005	1905.76	1.76531e-005
		1905.76	1.76531e-005	1905.76	1.76531e-005
				1905.76	1.76531e-005
		1907.23	3.81632e-006	1907.23	3.32535e-006
		1907.23	3.32535e-006	1907.23	3.32535e-006
				1907.23	3.32535e-006
				1908.69	2.10166e-005
				1908.69	2.10166e-005
				1908.69	2.10166e-005
				1910.16	3.53377e-005
				1910.16	3.53377e-005
				1910.16	3.53377e-005
		1911.62	3.33351e-005	1911.62	2.37288e-005
		1911.62	2.37288e-005	1911.62	2.37288e-005
				1911.62	2.37288e-005
				1913.09	1.62363e-005
				1913.09	1.62363e-005
				1913.09	1.62363e-005
				1914.55	3.6273e-005
				1914.55	3.6273e-005
				1914.55	3.6273e-005
				1916.02	2.47872e-005
				1916.02	2.47872e-005
				1916.02	2.47872e-005
		1917.48	2.98214e-005	1917.48	1.76586e-005
		1917.48	1.76586e-005	1917.48	1.76586e-005
				1917.48	1.76586e-005
				1918.95	1.43158e-005
				1918.95	1.43158e-005
				1918.95	1.43158e-005
		1920.41	2.44715e-005	1920.41	5.48158e-006
		1920.41	5.48158e-006	1920.41	5.48158e-006
				1920.41	5.48158e-006
		1921.88	2.13289e-005	1921.88	1.59783e-005
		1921.88	1.59783e-005	1921.88	1.59783e-005
				1921.88	1.59783e-005
		1923.34	1.22103e-005	1923.34	1.17322e-005
		1923.34	1.17322e-005	1923.34	1.17322e-005
				1923.34	1.17322e-005
		1924.8	2.9568e-005	1924.8	8.07488e-006
		1924.8	8.07488e-006	1924.8	8.07488e-006
				1924.8	8.07488e-006
				1926.27	1.57078e-005
				1926.27	1.57078e-005
				1926.27	1.57078e-005
		1927.73	1.65845e-005	1927.73	7.74203e-006
		1927.73	7.74203e-006	1927.73	7.74203e-006
				1927.73	7.74203e-006
		1929.2	1.92907e-005	1929.2	9.78291e-006
		1929.2	9.78291e-006	1929.2	9.78291e-006
				1929.2	9.78291e-006
1930.66	1.38857e-005			1930.66	6.31662e-006
1930.66	6.31662e-006			1930.66	6.31662e-006
				1930.66	6.31662e-006
		1932.13	1.94209e-005	1932.13	1.5765e-005
		1932.13	1.5765e-005	1932.13	1.5765e-005
				1932.13	1.5765e-005
				1933.59	2.14636e-005
				1933.59	2.14636e-005
				1933.59	2.14636e-005
				1935.06	5.98133e-006
				1935.06	5.98133e-006
				1935.06	5.98133e-006
				1936.52	2.86379e-005
				1936.52	2.86379e-005
				1936.52	2.86379e-005
				1937.99	2.41761e-005
				1937.99	2.41761e-005
				1937.99	2.41761e-005
				1939.45	4.01051e-005
				1939.45	4.01051e-005
				1939.45	4.01051e-005
				1940.92	1.70473e-005
				1940.92	1.70473e-005
				1940.92	1.70473e-005
		1942.38	2.42741e-005	1942.38	9.09421e-006
		1942.38	9.09421e-006	1942.38	9.09421e-006
				1942.38	9.09421e-006
				1943.85	1.53777e-005
				1943.85	1.53777e-005
				1943.85	1.53777e-005
				1945.31	2.88681e-005
				1945.31	2.88681e-005
				1945.31	2.88681e-005
		1946.78	2.33029e-005	1946.78	1.92733e-005
		1946.78	1.92733e-005	1946.78	1.92733e-005
				1946.78	1.92733e-005
		1948.24	1.6947e-005	1948.24	1.39684e-005
		1948.24	1.39684e-005	1948.24	1.39684e-005
				1948.24	1.39684e-005
				1949.71	1.13135e-005
				1949.71	1.13135e-005
				1949.71	1.13135e-005
		1951.17	2.95156e-005	1951.17	3.72176e-006
		1951.17	3.72176e-006	1951.17	3.72176e-006
				1951.17	3.72176e-006
		1952.64	2.00879e-005	1952.64	8.38281e-006
		1952.64	8.38281e-006	1952.64	8.38281e-006
				1952.64	8.38281e-006
				1954.1	2.8425e-005
				1954.1	2.8425e-005
				1954.1	2.8425e-005
		1955.57	2.05691e-005	1955.57	1.99945e-005
		1955.57	1.99945e-005	1955.57	1.99945e-005
				1955.57	1.99945e-005
		1957.03	1.5403e-005	1957.03	1.24023e-005
		1957.03	1.24023e-005	1957.03	1.24023e-005
				1957.03	1.24023e-005
		1958.5	1.76276e-005	1958.5	1.72446e-005
		1958.5	1.72446e-005	1958.5	1.72446e-005
				1958.5	1.72446e-005
				1959.96	1.34409e-005
				1959.96	1.34409e-005
				1959.96	1.34409e-005
				1961.43	7.48768e-006
				1961.43	7.48768e-006
				1961.43	7.48768e-006
		1962.89	2.62086e-005	1962.89	2.26422e-005
		1962.89	2.26422e-005	1962.89	2.26422e-005
				1962.89	2.26422e-005
				1964.36	2.7921e-005
				1964.36	2.7921e-005
				1964.36	2.7921e-005
		1965.82	1.8029e-005	1965.82	5.99785e-006
		1965.82	5.99785e-006	1965.82	5.99785e-006
				1965.82	5.99785e-006
		1967.29	2.13913e-005	1967.29	1.7974e-005
		1967.29	1.7974e-005	1967.29	1.7974e-005
				1967.29	1.7974e-005
				1968.75	2.4597e-005
				1968.75	2.4597e-005
				1968.75	2.4597e-005
		1970.21	1.83491e-005	1970.21	5.66653e-006
		1970.21	5.66653e-006	1970.21	5.66653e-006
				1970.21	5.66653e-006
		1971.68	1.15803e-005	1971.68	1.12075e-005
		1971.68	1.12075e-005	1971.68	1.12075e-005
				1971.68	1.12075e-005
		1973.14	1.26494e-005	1973.14	1.06419e-005
		1973.14	1.06419e-005	1973.14	1.06419e-005
				1973.14	1.06419e-005
		1974.61	2.73459e-005	1974.61	9.10688e-007
		1974.61	9.10688e-007	1974.61	9.10688e-007
				1974.61	9.10688e-007
		1976.07	1.92103e-005	1976.07	5.36036e-006
		1976.07	5.36036e-006	1976.07	5.36036e-006
				1976.07	5.36036e-006
				1977.54	1.23863e-005
				1977.54	1.23863e-005
				1977.54	1.23863e-005
		1979	1.47873e-005	1979	1.01951e-005
		1979	1.01951e-005	1979	1.01951e-005
				1979	1.01951e-005
				1980.47	2.57334e-005
				1980.47	2.57334e-005
				1980.47	2.57334e-005
		1981.93	1.96734e-005	1981.93	5.02484e-006
		1981.93	5.02484e-006	1981.93	5.02484e-006
				1981.93	5.02484e-006
				1983.4	3.28275e-005
				1983.4	3.28275e-005
				1983.4	3.28275e-005
				1984.86	2.20492e-005
				1984.86	2.20492e-005
				1984.86	2.20492e-005
				1986.33	2.55679e-005
				1986.33	2.55679e-005
				1986.33	2.55679e-005
		1987.79	1.03167e-005	1987.79	8.77088e-006
		1987.79	8.77088e-006	1987.79	8.77088e-006
				1987.79	8.77088e-006
				1989.26	2.726e-005
				1989.26	2.726e-005
				1989.26	2.726e-005
				1990.72	2.22015e-005
				1990.72	2.22015e-005
				1990.72	2.22015e-005
		1992.19	2.44967e-005	1992.19	1.54851e-005
		1992.19	1.54851e-005	1992.19	1.54851e-005
				1992.19	1.54851e-005
		1993.65	3.18898e-005	1993.65	9.15934e-006
		1993.65	9.15934e-006	1993.65	9.15934e-006
				1993.65	9.15934e-006
				1995.12	2.01425e-005
				1995.12	2.01425e-005
				1995.12	2.01425e-005
				1996.58	2.84684e-005
				1996.58	2.84684e-005
				1996.58	2.84684e-005
		1998.05	1.61192e-005	1998.05	1.2489e-005
		1998.05	1.2489e-005	1998.05	1.2489e-005
				1998.05	1.2489e-005
		1999.51	1.97085e-005	1999.51	9.09327e-006
		1999.51	9.09327e-006	1999.51	9.09327e-006
				1999.51	9.09327e-006
				2000.98	1.50358e-005
				2000.98	1.50358e-005
				2000.98	1.50358e-005
				2002.44	2.13153e-005
				2002.44	2.13153e-005
				2002.44	2.13153e-005
		2003.91	2.19591e-005	2003.91	1.15177e-005
		2003.91	1.15177e-005	2003.91	1.15177e-005
				2003.91	1.15177e-005
				2005.37	2.18936e-005
				2005.37	2.18936e-005
				2005.37	2.18936e-005
		2006.84	4.46079e-005	2006.84	7.24005e-006
		2006.84	7.24005e-006	2006.84	7.24005e-006
				2006.84	7.24005e-006
		2008.3	3.67915e-006	2008.3	1.97488e-006
		2008.3	1.97488e-006	2008.3	1.97488e-006
				2008.3	1.97488e-006
		2009.77	2.04575e-005	2009.77	5.86417e-006
		2009.77	5.86417e-006	2009.77	5.86417e-006
				2009.77	5.86417e-006
		2011.23	1.53254e-005	2011.23	7.37068e-006
		2011.23	7.37068e-006	2011.23	7.37068e-006
				2011.23	7.37068e-006
				2012.7	3.26515e-005
				2012.7	3.26515e-005
				2012.7	3.26515e-005
				2014.16	1.46405e-005
				2014.16	1.46405e-005
				2014.16	1.46405e-005
		2015.63	1.427e-005	2015.63	7.28474e-006
		2015.63	7.28474e-006	2015.63	7.28474e-006
				2015.63	7.28474e-006
				2017.09	1.58937e-005
				2017.09	1.58937e-005
				2017.09	1.58937e-005
		2018.55	2.26026e-005	2018.55	1.52776e-005
		2018.55	1.52776e-005	2018.55	1.52776e-005
				2018.55	1.52776e-005
		2020.02	1.04982e-005	2020.02	3.97363e-006
		2020.02	3.97363e-006	2020.02	3.97363e-006
				2020.02	3.97363e-006
		2021.48	1.78798e-005	2021.48	8.25953e-006
		2021.48	8.25953e-006	2021.48	8.25953e-006
				2021.48	8.25953e-006
		2022.95	2.89263e-005	2022.95	1.69723e-005
		2022.95	1.69723e-005	2022.95	1.69723e-005
				2022.95	1.69723e-005
				2024.41	1.62606e-005
				2024.41	1.62606e-005
				2024.41	1.62606e-005
		2025.88	1.79433e-005	2025.88	1.69673e-005
		2025.88	1.69673e-005	2025.88	1.69673e-005
				2025.88	1.69673e-005
				2027.34	1.87174e-005
				2027.34	1.87174e-005
				2027.34	1.87174e-005
				2028.81	2.03405e-005
				2028.81	2.03405e-005
				2028.81	2.03405e-005
		2030.27	2.90661e-005	2030.27	2.02303e-005
		2030.27	2.02303e-005	2030.27	2.02303e-005
				2030.27	2.02303e-005
		2031.74	2.94322e-005	2031.74	6.85522e-006
		2031.74	6.85522e-006	2031.74	6.85522e-006
				2031.74	6.85522e-006
		2033.2	3.73516e-005	2033.2	1.42656e-005
		2033.2	1.42656e-005	2033.2	1.42656e-005
				2033.2	1.42656e-005
				2034.67	2.35092e-005
				2034.67	2.35092e-005
				2034.67	2.35092e-005
		2036.13	1.9474e-005	2036.13	6.8885e-006
		2036.13	6.8885e-006	2036.13	6.8885e-006
				2036.13	6.8885e-006
		2037.6	1.76247e-005	2037.6	3.97288e-006
		2037.6	3.97288e-006	2037.6	3.97288e-006
				2037.6	3.97288e-006
		2039.06	7.86068e-006	2039.06	2.36936e-006
		2039.06	2.36936e-006	2039.06	2.36936e-006
				2039.06	2.36936e-006
				2040.53	2.52829e-005
				2040.53	2.52829e-005
				2040.53	2.52829e-005
				2041.99	1.11307e-005
				2041.99	1.11307e-005
				2041.99	1.11307e-005
		2043.46	1.96164e-005	2043.46	1.53798e-005
		2043.46	1.53798e-005	2043.46	1.53798e-005
				2043.46	1.53798e-005
				2044.92	2.16689e-005
				2044.92	2.16689e-005
				2044.92	2.16689e-005
		2046.39	2.35574e-005	2046.39	1.30846e-005
		2046.39	1.30846e-005	2046.39	1.30846e-005
				2046.39	1.30846e-005
				2047.85	1.83306e-005
				2047.85	1.83306e-005
				2047.85	1.83306e-005
		2049.32	2.05025e-005	2049.32	1.16841e-005
		2049.32	1.16841e-005	2049.32	1.16841e-005
				2049.32	1.16841e-005
		2050.78	1.69427e-005	2050.78	7.48268e-006
		2050.78	7.48268e-006	2050.78	7.48268e-006
				2050.78	7.48268e-006
		2052.25	1.69235e-005	2052.25	9.88148e-006
		2052.25	9.88148e-006	2052.25	9.88148e-006
				2052.25	9.88148e-006
		2053.71	2.2079e-006	2053.71	2.16036e-006
		2053.71	2.16036e-006	2053.71	2.16036e-006
				2053.71	2.16036e-006
				2055.18	2.38028e-005
				2055.18	2.38028e-005
				2055.18	2.38028e-005
				2056.64	7.35651e-006
				2056.64	7.35651e-006
				2056.64	7.35651e-006
				2058.11	5.32196e-006
				2058.11	5.32196e-006
				2058.11	5.32196e-006
		2059.57	1.59693e-005	2059.57	1.1228e-005
		2059.57	1.1228e-005	2059.57	1.1228e-005
				2059.57	1.1228e-005
		2061.04	1.05129e-005	2061.04	8.23415e-006
		2061.04	8.23415e-006	2061.04	8.23415e-006
				2061.04	8.23415e-006
		2062.5	7.90017e-006	2062.5	6.70973e-006
		2062.5	6.70973e-006	2062.5	6.70973e-006
				2062.5	6.70973e-006
		2063.96	2.51144e-005	2063.96	1.78888e-005
		2063.96	1.78888e-005	2063.96	1.78888e-005
				2063.96	1.78888e-005
				2065.43	2.41665e-005
				2065.43	2.41665e-005
				2065.43	2.41665e-005
				2066.89	7.1326e-006
				2066.89	7.1326e-006
				2066.89	7.1326e-006
		2068.36	1.01989e-005	2068.36	9.95091e-006
		2068.36	9.95091e-006	2068.36	9.95091e-006
				2068.36	9.95091e-006
		2069.82	1.00285e-005	2069.82	6.71422e-006
		2069.82	6.71422e-006	2069.82	6.71422e-006
				2069.82	6.71422e-006
		2071.29	2.18406e-005	2071.29	9.38646e-006
		2071.29	9.38646e-006	2071.29	9.38646e-006
				2071.29	9.38646e-006
		2072.75	2.09536e-005	2072.75	9.80191e-006
		2072.75	9.80191e-006	2072.75	9.80191e-006
				2072.75	9.80191e-006
		2074.22	1.31166e-005	2074.22	4.16624e-006
		2074.22	4.16624e-006	2074.22	4.16624e-006
				2074.22	4.16624e-006
		2075.68	2.56952e-005	2075.68	4.32773e-006
		2075.68	4.32773e-006	2075.68	4.32773e-006
				2075.68	4.32773e-006
		2077.15	2.86304e-005	2077.15	1.72925e-005
		2077.15	1.72925e-005	2077.15	1.72925e-005
				2077.15	1.72925e-005
				2078.61	1.10291e-005
				2078.61	1.10291e-005
				2078.61	1.10291e-005
				2080.08	2.35362e-005
				2080.08	2.35362e-005
				2080.08	2.35362e-005
				2081.54	2.24816e-005
				2081.54	2.24816e-005
				2081.54	2.24816e-005
				2083.01	1.98899e-005
				2083.01	1.98899e-005
				2083.01	1.98899e-005
		2084.47	1.82255e-005	2084.47	8.26864e-006
		2084.47	8.26864e-006	2084.47	8.26864e-006
				2084.47	8.26864e-006
		2085.94	2.49815e-005	2085.94	2.04408e-005
		2085.94	2.04408e-005	2085.94	2.04408e-005
				2085.94	2.04408e-005
				2087.4	1.55719e-005
				2087.4	1.55719e-005
				2087.4	1.55719e-005
		2088.87	1.22432e-005	2088.87	3.11571e-006
		2088.87	3.11571e-006	2088.87	3.11571e-006
				2088.87	3.11571e-006
				2090.33	1.60594e-005
				2090.33	1.60594e-005
				2090.33	1.60594e-005
				2091.8	7.55153e-006
				2091.8	7.55153e-006
				2091.8	7.55153e-006
				2093.26	1.80724e-005
				2093.26	1.80724e-005
				2093.26	1.80724e-005
				2094.73	2.54286e-005
				2094.73	2.54286e-005
				2094.73	2.54286e-005
				2096.19	2.30947e-005
				2096.19	2.30947e-005
				2096.19	2.30947e-005
				2097.66	2.8448e-005
				2097.66	2.8448e-005
				2097.66	2.8448e-005
		2099.12	2.77793e-005	2099.12	1.83755e-005
		2099.12	1.83755e-005	2099.12	1.83755e-005
				2099.12	1.83755e-005
				2100.59	1.73526e-005
				2100.59	1.73526e-005
				2100.59	1.73526e-005
		2102.05	2.45726e-005	2102.05	9.93075e-006
		2102.05	9.93075e-006	2102.05	9.93075e-006
				2102.05	9.93075e-006
				2103.52	1.23987e-005
				2103.52	1.23987e-005
				2103.52	1.23987e-005
		2104.98	1.63487e-005	2104.98	7.08845e-006
		2104.98	7.08845e-006	2104.98	7.08845e-006
				2104.98	7.08845e-006
				2106.45	1.6547e-005
				2106.45	1.6547e-005
				2106.45	1.6547e-005
				2107.91	2.18986e-005
				2107.91	2.18986e-005
				2107.91	2.18986e-005
				2109.38	2.00288e-005
				2109.38	2.00288e-005
				2109.38	2.00288e-005
		2110.84	2.31352e-005	2110.84	1.3532e-005
		2110.84	1.3532e-005	2110.84	1.3532e-005
				2110.84	1.3532e-005
		2112.3	3.25437e-005	2112.3	1.52469e-005
		2112.3	1.52469e-005	2112.3	1.52469e-005
				2112.3	1.52469e-005
		2113.77	1.73381e-005	2113.77	1.41745e-005
		2113.77	1.41745e-005	2113.77	1.41745e-005
				2113.77	1.41745e-005
				2115.23	2.44928e-005
				2115.23	2.44928e-005
				2115.23	2.44928e-005
				2116.7	2.50637e-005
				2116.7	2.50637e-005
				2116.7	2.50637e-005
		2118.16	1.84056e-005	2118.16	1.54538e-005
		2118.16	1.54538e-005	2118.16	1.54538e-005
				2118.16	1.54538e-005
				2119.63	2.22095e-005
				2119.63	2.22095e-005
				2119.63	2.22095e-005
				2121.09	1.40757e-005
				2121.09	1.40757e-005
				2121.09	1.40757e-005
		2122.56	2.32989e-005	2122.56	2.04883e-005
		2122.56	2.04883e-005	2122.56	2.04883e-005
				2122.56	2.04883e-005
		2124.02	1.89288e-005	2124.02	4.63916e-006
		2124.02	4.63916e-006	2124.02	4.63916e-006
				2124.02	4.63916e-006
		2125.49	1.47075e-005	2125.49	7.94358e-006
		2125.49	7.94358e-006	2125.49	7.94358e-006
				2125.49	7.94358e-006
		2126.95	1.30764e-005	2126.95	3.17865e-006
		2126.95	3.17865e-006	2126.95	3.17865e-006
				2126.95	3.17865e-006
		2128.42	1.69547e-005	2128.42	5.64842e-006
		2128.42	5.64842e-006	2128.42	5.64842e-006
				2128.42	5.64842e-006
				2129.88	1.4342e-005
				2129.88	1.4342e-005
				2129.88	1.4342e-005
		2131.35	1.67698e-005	2131.35	1.16443e-005
		2131.35	1.16443e-005	2131.35	1.16443e-005
				2131.35	1.16443e-005
		2132.81	1.53998e-005	2132.81	5.67675e-006
		2132.81	5.67675e-006	2132.81	5.67675e-006
				2132.81	5.67675e-006
				2134.28	7.82336e-006
				2134.28	7.82336e-006
				2134.28	7.82336e-006
		2135.74	1.42719e-005	2135.74	1.31263e-005
		2135.74	1.31263e-005	2135.74	1.31263e-005
				2135.74	1.31263e-005
		2137.21	2.74416e-005	2137.21	1.17065e-005
		2137.21	1.17065e-005	2137.21	1.17065e-005
				2137.21	1.17065e-005
				2138.67	6.79739e-006
				2138.67	6.79739e-006
				2138.67	6.79739e-006
		2140.14	1.65922e-005	2140.14	7.1152e-006
		2140.14	7.1152e-006	2140.14	7.1152e-006
				2140.14	7.1152e-006
		2141.6	2.23314e-005	2141.6	4.96919e-006
		2141.6	4.96919e-006	2141.6	4.96919e-006
				2141.6	4.96919e-006
		2143.07	5.58955e-006	2143.07	3.92603e-006
		2143.07	3.92603e-006	2143.07	3.92603e-006
				2143.07	3.92603e-006
		2144.53	2.39795e-005	2144.53	1.77063e-005
		2144.53	1.77063e-005	2144.53	1.77063e-005
				2144.53	1.77063e-005
				2146	1.89426e-005
				2146	1.89426e-005
				2146	1.89426e-005
				2147.46	7.72162e-006
				2147.46	7.72162e-006
				2147.46	7.72162e-006
		2148.93	1.83143e-005	2148.93	8.51917e-006
		2148.93	8.51917e-006	2148.93	8.51917e-006
				2148.93	8.51917e-006
		2150.39	1.26899e-005	2150.39	7.27338e-006
		2150.39	7.27338e-006	2150.39	7.27338e-006
				2150.39	7.27338e-006
		2151.86	1.91819e-005	2151.86	1.8093e-005
		2151.86	1.8093e-005	2151.86	1.8093e-005
				2151.86	1.8093e-005
		2153.32	5.61311e-006	2153.32	5.11486e-006
		2153.32	5.11486e-006	2153.32	5.11486e-006
				2153.32	5.11486e-006
		2154.79	1.13318e-005	2154.79	5.64709e-006
		2154.79	5.64709e-006	2154.79	5.64709e-006
				2154.79	5.64709e-006
		2156.25	1.38854e-005	2156.25	6.34426e-006
		2156.25	6.34426e-006	2156.25	6.34426e-006
				2156.25	6.34426e-006
		2157.71	1.02642e-005	2157.71	5.52694e-006
		2157.71	5.52694e-006	2157.71	5.52694e-006
				2157.71	5.52694e-006
				2159.18	2.42903e-005
				2159.18	2.42903e-005
				2159.18	2.42903e-005
				2160.64	2.53204e-005
				2160.64	2.53204e-005
				2160.64	2.53204e-005
				2162.11	1.37864e-005
				2162.11	1.37864e-005
				2162.11	1.37864e-005
				2163.57	1.65348e-005
				2163.57	1.65348e-005
				2163.57	1.65348e-005
				2165.04	1.97389e-005
				2165.04	1.97389e-005
				2165.04	1.97389e-005
		2166.5	4.87896e-006	2166.5	3.37359e-006
		2166.5	3.37359e-006	2166.5	3.37359e-006
				2166.5	3.37359e-006
		2167.97	8.65778e-006	2167.97	9.69198e-007
		2167.97	9.69198e-007	2167.97	9.69198e-007
				2167.97	9.69198e-007
				2169.43	1.57632e-005
				2169.43	1.57632e-005
				2169.43	1.57632e-005
				2170.9	1.40895e-005
				2170.9	1.40895e-005
				2170.9	1.40895e-005
		2172.36	1.2627e-005	2172.36	8.91006e-006
		2172.36	8.91006e-006	2172.36	8.91006e-006
				2172.36	8.91006e-006
				2173.83	1.22201e-005
				2173.83	1.22201e-005
				2173.83	1.22201e-005
		2175.29	2.16027e-005	2175.29	1.13508e-005
		2175.29	1.13508e-005	2175.29	1.13508e-005
				2175.29	1.13508e-005
		2176.76	1.40388e-005	2176.76	1.22409e-005
		2176.76	1.22409e-005	2176.76	1.22409e-005
				2176.76	1.22409e-005
				2178.22	2.31908e-005
				2178.22	2.31908e-005
				2178.22	2.31908e-005
		2179.69	1.46564e-005	2179.69	8.92905e-006
		2179.69	8.92905e-006	2179.69	8.92905e-006
				2179.69	8.92905e-006
				2181.15	2.22172e-005
				2181.15	2.22172e-005
				2181.15	2.22172e-005
				2182.62	1.1653e-005
				2182.62	1.1653e-005
				2182.62	1.1653e-005
		2184.08	1.85828e-005	2184.08	1.61359e-005
		2184.08	1.61359e-005	2184.08	1.61359e-005
				2184.08	1.61359e-005
		2185.55	8.91646e-006	2185.55	8.88793e-006
		2185.55	8.88793e-006	2185.55	8.88793e-006
				2185.55	8.88793e-006
				2187.01	1.8679e-005
				2187.01	1.8679e-005
				2187.01	1.8679e-005
				2188.48	1.3417e-005
				2188.48	1.3417e-005
				2188.48	1.3417e-005
				2189.94	2.38194e-005
				2189.94	2.38194e-005
				2189.94	2.38194e-005
		2191.41	1.5256e-005	2191.41	1.43792e-005
		2191.41	1.43792e-005	2191.41	1.43792e-005
				2191.41	1.43792e-005
				2192.87	1.11787e-005
				2192.87	1.11787e-005
				2192.87	1.11787e-005
		2194.34	9.94966e-006	2194.34	1.53537e-006
		2194.34	1.53537e-006	2194.34	1.53537e-006
				2194.34	1.53537e-006
		2195.8	5.79163e-006	2195.8	5.50477e-006
		2195.8	5.50477e-006	2195.8	5.50477e-006
				2195.8	5.50477e-006
				2197.27	1.2624e-005
				2197.27	1.2624e-005
				2197.27	1.2624e-005
				2198.73	1.01405e-005
				2198.73	1.01405e-005
				2198.73	1.01405e-005
				2200.2	2.10905e-005
				2200.2	2.10905e-005
				2200.2	2.10905e-005
				2201.66	2.39176e-005
				2201.66	2.39176e-005
				2201.66	2.39176e-005
		2203.13	2.36755e-005	2203.13	1.33596e-005
		2203.13	1.33596e-005	2203.13	1.33596e-005
				2203.13	1.33596e-005
		2204.59	1.41713e-005	2204.59	9.45516e-006
		2204.59	9.45516e-006	2204.59	9.45516e-006
				2204.59	9.45516e-006
		2206.05	5.95542e-006	2206.05	5.44971e-006
		2206.05	5.44971e-006	2206.05	5.44971e-006
				2206.05	5.44971e-006
				2207.52	1.76916e-005
				2207.52	1.76916e-005
				2207.52	1.76916e-005
		2208.98	7.41655e-006	2208.98	1.31298e-006
		2208.98	1.31298e-006	2208.98	1.31298e-006
				2208.98	1.31298e-006
				2210.45	1.32105e-005
				2210.45	1.32105e-005
				2210.45	1.32105e-005
				2211.91	7.78025e-006
				2211.91	7.78025e-006
				2211.91	7.78025e-006
				2213.38	1.84007e-005
				2213.38	1.84007e-005
				2213.38	1.84007e-005
				2214.84	2.11905e-005
				2214.84	2.11905e-005
				2214.84	2.11905e-005
		2216.31	1.92242e-005	2216.31	5.98454e-006
		2216.31	5.98454e-006	2216.31	5.98454e-006
				2216.31	5.98454e-006
				2217.77	1.4486e-005
				2217.77	1.4486e-005
				2217.77	1.4486e-005
		2219.24	1.3538e-005	2219.24	5.2633e-006
		2219.24	5.2633e-006	2219.24	5.2633e-006
				2219.24	5.2633e-006
		2220.7	2.88584e-005	2220.7	1.63856e-005
		2220.7	1.63856e-005	2220.7	1.63856e-005
				2220.7	1.63856e-005
				2222.17	1.29071e-005
				2222.17	1.29071e-005
				2222.17	1.29071e-005
				2223.63	1.45082e-005
				2223.63	1.45082e-005
				2223.63	1.45082e-005
				2225.1	9.58036e-006
				2225.1	9.58036e-006
				2225.1	9.58036e-006
		2226.56	8.94003e-006	2226.56	7.0273e-006
		2226.56	7.0273e-006	2226.56	7.0273e-006
				2226.56	7.0273e-006
		2228.03	1.83303e-005	2228.03	9.31572e-006
		2228.03	9.31572e-006	2228.03	9.31572e-006
				2228.03	9.31572e-006
		2229.49	2.31282e-005	2229.49	1.49055e-005
		2229.49	1.49055e-005	2229.49	1.49055e-005
				2229.49	1.49055e-005
				2230.96	2.22773e-005
				2230.96	2.22773e-005
				2230.96	2.22773e-005
		2232.42	2.43342e-005	2232.42	7.93978e-006
		2232.42	7.93978e-006	2232.42	7.93978e-006
				2232.42	7.93978e-006
		2233.89	3.14703e-005	2233.89	1.74678e-005
		2233.89	1.74678e-005	2233.89	1.74678e-005
				2233.89	1.74678e-005
		2235.35	2.52937e-005	2235.35	3.28656e-006
		2235.35	3.28656e-006	2235.35	3.28656e-006
				2235.35	3.28656e-006
		2236.82	1.77655e-005	2236.82	1.53386e-005
		2236.82	1.53386e-005	2236.82	1.53386e-005
				2236.82	1.53386e-005
				2238.28	3.00476e-005
				2238.28	3.00476e-005
				2238.28	3.00476e-005
		2239.75	1.52973e-005	2239.75	9.59775e-006
		2239.75	9.59775e-006	2239.75	9.59775e-006
				2239.75	9.59775e-006
				2241.21	1.74017e-005
				2241.21	1.74017e-005
				2241.21	1.74017e-005
		2242.68	2.40161e-005	2242.68	1.15197e-005
		2242.68	1.15197e-005	2242.68	1.15197e-005
				2242.68	1.15197e-005
		2244.14	1.35136e-005	2244.14	1.00933e-005
		2244.14	1.00933e-005	2244.14	1.00933e-005
				2244.14	1.00933e-005
				2245.61	3.54479e-005
				2245.61	3.54479e-005
				2245.61	3.54479e-005
		2247.07	1.46904e-005	2247.07	4.32039e-006
		2247.07	4.32039e-006	2247.07	4.32039e-006
				2247.07	4.32039e-006
				2248.54	6.51606e-006
				2248.54	6.51606e-006
				2248.54	6.51606e-006
				2250	1.54828e-005
				2250	1.54828e-005
				2250	1.54828e-005
				2251.46	2.09944e-005
				2251.46	2.09944e-005
				2251.46	2.09944e-005
		2252.93	3.08847e-005	2252.93	2.3843e-005
		2252.93	2.3843e-005	2252.93	2.3843e-005
				2252.93	2.3843e-005
		2254.39	8.60591e-006	2254.39	8.17246e-006
		2254.39	8.17246e-006	2254.39	8.17246e-006
				2254.39	8.17246e-006
		2255.86	1.52126e-005	2255.86	5.99085e-006
		2255.86	5.99085e-006	2255.86	5.99085e-006
				2255.86	5.99085e-006
		2257.32	2.51482e-005	2257.32	1.0287e-005
		2257.32	1.0287e-005	2257.32	1.0287e-005
				2257.32	1.0287e-005
		2258.79	1.3508e-005	2258.79	9.45175e-006
		2258.79	9.45175e-006	2258.79	9.45175e-006
				2258.79	9.45175e-006
		2260.25	2.23409e-005	2260.25	7.21382e-006
		2260.25	7.21382e-006	2260.25	7.21382e-006
				2260.25	7.21382e-006
		2261.72	1.22773e-005	2261.72	7.43825e-006
		2261.72	7.43825e-006	2261.72	7.43825e-006
				2261.72	7.43825e-006
		2263.18	2.44583e-005	2263.18	1.49207e-005
		2263.18	1.49207e-005	2263.18	1.49207e-005
				2263.18	1.49207e-005
		2264.65	1.58673e-005	2264.65	6.97048e-006
		2264.65	6.97048e-006	2264.65	6.97048e-006
				2264.65	6.97048e-006
				2266.11	1.09029e-005
				2266.11	1.09029e-005
				2266.11	1.09029e-005
		2267.58	1.407e-005	2267.58	6.97635e-006
		2267.58	6.97635e-006	2267.58	6.97635e-006
				2267.58	6.97635e-006
		2269.04	1.13791e-005	2269.04	7.51261e-006
		2269.04	7.51261e-006	2269.04	7.51261e-006
				2269.04	7.51261e-006
		2270.51	2.03942e-005	2270.51	1.4082e-005
		2270.51	1.4082e-005	2270.51	1.4082e-005
				2270.51	1.4082e-005
				2271.97	1.51446e-005
				2271.97	1.51446e-005
				2271.97	1.51446e-005
		2273.44	2.00974e-005	2273.44	6.13554e-006
		2273.44	6.13554e-006	2273.44	6.13554e-006
				2273.44	6.13554e-006
				2274.9	1.13435e-005
				2274.9	1.13435e-005
				2274.9	1.13435e-005
				2276.37	1.88542e-005
				2276.37	1.88542e-005
				2276.37	1.88542e-005
		2277.83	2.12259e-005	2277.83	1.12784e-005
		2277.83	1.12784e-005	2277.83	1.12784e-005
				2277.83	1.12784e-005
				2279.3	2.1256e-005
				2279.3	2.1256e-005
				2279.3	2.1256e-005
				2280.76	2.7981e-005
				2280.76	2.7981e-005
				2280.76	2.7981e-005
		2282.23	2.46433e-005	2282.23	1.21226e-005
		2282.23	1.21226e-005	2282.23	1.21226e-005
				2282.23	1.21226e-005
		2283.69	1.11013e-005	2283.69	9.3278e-006
		2283.69	9.3278e-006	2283.69	9.3278e-006
				2283.69	9.3278e-006
		2285.16	2.33863e-005	2285.16	1.67531e-005
		2285.16	1.67531e-005	2285.16	1.67531e-005
				2285.16	1.67531e-005
				2286.62	2.1035e-005
				2286.62	2.1035e-005
				2286.62	2.1035e-005
				2288.09	2.69616e-005
				2288.09	2.69616e-005
				2288.09	2.69616e-005
				2289.55	1.95563e-005
				2289.55	1.95563e-005
				2289.55	1.95563e-005
		2291.02	1.65647e-005	2291.02	1.62338e-005
		2291.02	1.62338e-005	2291.02	1.62338e-005
				2291.02	1.62338e-005
				2292.48	1.4847e-005
				2292.48	1.4847e-005
				2292.48	1.4847e-005
		2293.95	3.12342e-005	2293.95	1.61962e-005
		2293.95	1.61962e-005	2293.95	1.61962e-005
				2293.95	1.61962e-005
				2295.41	3.08957e-005
				2295.41	3.08957e-005
				2295.41	3.08957e-005
				2296.88	1.48493e-005
				2296.88	1.48493e-005
				2296.88	1.48493e-005
				2298.34	9.75402e-006
				2298.34	9.75402e-006
				2298.34	9.75402e-006
		2299.8	1.19484e-005	2299.8	3.91179e-006
		2299.8	3.91179e-006	2299.8	3.91179e-006
				2299.8	3.91179e-006
				2301.27	1.82074e-005
				2301.27	1.82074e-005
				2301.27	1.82074e-005
				2302.73	1.17242e-005
				2302.73	1.17242e-005
				2302.73	1.17242e-005
				2304.2	1.61839e-005
				2304.2	1.61839e-005
				2304.2	1.61839e-005
				2305.66	9.17094e-006
				2305.66	9.17094e-006
				2305.66	9.17094e-006
		2307.13	2.43273e-005	2307.13	1.16033e-005
		2307.13	1.16033e-005	2307.13	1.16033e-005
				2307.13	1.16033e-005
		2308.59	3.06081e-005	2308.59	2.80632e-005
		2308.59	2.80632e-005	2308.59	2.80632e-005
				2308.59	2.80632e-005
				2310.06	5.24913e-006
				2310.06	5.24913e-006
				2310.06	5.24913e-006
				2311.52	1.57983e-005
				2311.52	1.57983e-005
				2311.52	1.57983e-005
		2312.99	1.49705e-005	2312.99	1.42506e-005
		2312.99	1.42506e-005	2312.99	1.42506e-005
				2312.99	1.42506e-005
		2314.45	1.5856e-005	2314.45	9.92753e-006
		2314.45	9.92753e-006	2314.45	9.92753e-006
				2314.45	9.92753e-006
		2315.92	1.15314e-005	2315.92	8.89993e-006
		2315.92	8.89993e-006	2315.92	8.89993e-006
				2315.92	8.89993e-006
		2317.38	1.97548e-005	2317.38	1.26707e-005
		2317.38	1.26707e-005	2317.38	1.26707e-005
				2317.38	1.26707e-005
		2318.85	9.33178e-006	2318.85	8.49491e-006
		2318.85	8.49491e-006	2318.85	8.49491e-006
				2318.85	8.49491e-006
		2320.31	2.60429e-005	2320.31	1.59378e-005
		2320.31	1.59378e-005	2320.31	1.59378e-005
				2320.31	1.59378e-005
		2321.78	1.50707e-005	2321.78	7.06288e-006
		2321.78	7.06288e-006	2321.78	7.06288e-006
				2321.78	7.06288e-006
				2323.24	2.58103e-005
				2323.24	2.58103e-005
				2323.24	2.58103e-005
		2324.71	8.72242e-006	2324.71	3.77833e-006
		2324.71	3.77833e-006	2324.71	3.77833e-006
				2324.71	3.77833e-006
				2326.17	1.51671e-005
				2326.17	1.51671e-005
				2326.17	1.51671e-005
				2327.64	2.89647e-005
				2327.64	2.89647e-005
				2327.64	2.89647e-005
		2329.1	1.8238e-005	2329.1	7.8262e-006
		2329.1	7.8262e-006	2329.1	7.8262e-006
				2329.1	7.8262e-006
				2330.57	2.61896e-005
				2330.57	2.61896e-005
				2330.57	2.61896e-005
		2332.03	2.08521e-005	2332.03	3.92023e-006
		2332.03	3.92023e-006	2332.03	3.92023e-006
				2332.03	3.92023e-006
				2333.5	1.63552e-005
				2333.5	1.63552e-005
				2333.5	1.63552e-005
				2334.96	1.10644e-005
				2334.96	1.10644e-005
				2334.96	1.10644e-005
		2336.43	1.60679e-005	2336.43	1.13161e-005
		2336.43	1.13161e-005	2336.43	1.13161e-005
				2336.43	1.13161e-005
				2337.89	1.59747e-005
				2337.89	1.59747e-005
				2337.89	1.59747e-005
				2339.36	7.31669e-006
				2339.36	7.31669e-006
				2339.36	7.31669e-006
				2340.82	1.10879e-005
				2340.82	1.10879e-005
				2340.82	1.10879e-005
				2342.29	1.31734e-005
				2342.29	1.31734e-005
				2342.29	1.31734e-005
				2343.75	1.4114e-005
				2343.75	1.4114e-005
				2343.75	1.4114e-005
		2345.21	2.88138e-005	2345.21	1.77094e-005
		2345.21	1.77094e-005	2345.21	1.77094e-005
				2345.21	1.77094e-005
				2346.68	1.07415e-005
				2346.68	1.07415e-005
				2346.68	1.07415e-005
		2348.14	1.6495e-005	2348.14	2.12352e-006
		2348.14	2.12352e-006	2348.14	2.12352e-006
				2348.14	2.12352e-006
		2349.61	2.32603e-005	2349.61	9.46678e-006
		2349.61	9.46678e-006	2349.61	9.46678e-006
				2349.61	9.46678e-006
		2351.07	2.82537e-005	2351.07	2.18346e-005
		2351.07	2.18346e-005	2351.07	2.18346e-005
				2351.07	2.18346e-005
				2352.54	3.22306e-005
				2352.54	3.22306e-005
				2352.54	3.22306e-005
				2354	2.63776e-005
				2354	2.63776e-005
				2354	2.63776e-005
		2355.47	1.72747e-005	2355.47	8.7076e-006
		2355.47	8.7076e-006	2355.47	8.7076e-006
				2355.47	8.7076e-006
				2356.93	1.99932e-005
				2356.93	1.99932e-005
				2356.93	1.99932e-005
		2358.4	9.04072e-006	2358.4	8.80236e-006
		2358.4	8.80236e-006	2358.4	8.80236e-006
				2358.4	8.80236e-006
				2359.86	1.76921e-005
				2359.86	1.76921e-005
				2359.86	1.76921e-005
		2361.33	1.4935e-005	2361.33	7.76442e-006
		2361.33	7.76442e-006	2361.33	7.76442e-006
				2361.33	7.76442e-006
		2362.79	1.4586e-005	2362.79	1.67603e-006
		2362.79	1.67603e-006	2362.79	1.67603e-006
				2362.79	1.67603e-006
				2364.26	1.24288e-005
				2364.26	1.24288e-005
				2364.26	1.24288e-005
				2365.72	1.87872e-005
				2365.72	1.87872e-005
				2365.72	1.87872e-005
		2367.19	3.03283e-005	2367.19	5.7128e-006
		2367.19	5.7128e-006	2367.19	5.7128e-006
				2367.19	5.7128e-006
		2368.65	8.70866e-006	2368.65	8.24295e-006
		2368.65	8.24295e-006	2368.65	8.24295e-006
				2368.65	8.24295e-006
		2370.12	1.40645e-005	2370.12	1.31929e-005
		2370.12	1.31929e-005	2370.12	1.31929e-005
				2370.12	1.31929e-005
		2371.58	1.83836e-005	2371.58	5.75002e-006
		2371.58	5.75002e-006	2371.58	5.75002e-006
				2371.58	5.75002e-006
				2373.05	5.0933e-006
				2373.05	5.0933e-006
				2373.05	5.0933e-006
				2374.51	7.24739e-006
				2374.51	7.24739e-006
				2374.51	7.24739e-006
				2375.98	1.073e-005
				2375.98	1.073e-005
				2375.98	1.073e-005
				2377.44	2.28157e-005
				2377.44	2.28157e-005
				2377.44	2.28157e-005
				2378.91	2.02453e-005
				2378.91	2.02453e-005
				2378.91	2.02453e-005
		2380.37	1.16433e-005	2380.37	6.49108e-006
		2380.37	6.49108e-006	2380.37	6.49108e-006
				2380.37	6.49108e-006
				2381.84	1.9574e-005
				2381.84	1.9574e-005
				2381.84	1.9574e-005
		2383.3	1.63637e-005	2383.3	7.08972e-006
		2383.3	7.08972e-006	2383.3	7.08972e-006
				2383.3	7.08972e-006
				2384.77	9.36575e-006
				2384.77	9.36575e-006
				2384.77	9.36575e-006
				2386.23	1.37516e-005
				2386.23	1.37516e-005
				2386.23	1.37516e-005
				2387.7	2.06142e-005
				2387.7	2.06142e-005
				2387.7	2.06142e-005
		2389.16	4.18339e-006	2389.16	1.47717e-006
		2389.16	1.47717e-006	2389.16	1.47717e-006
				2389.16	1.47717e-006
		2390.63	1.41041e-005	2390.63	1.31551e-005
		2390.63	1.31551e-005	2390.63	1.31551e-005
				2390.63	1.31551e-005
				2392.09	1.93422e-005
				2392.09	1.93422e-005
				2392.09	1.93422e-005
				2393.55	1.78098e-005
				2393.55	1.78098e-005
				2393.55	1.78098e-005
				2395.02	1.07735e-005
				2395.02	1.07735e-005
				2395.02	1.07735e-005
				2396.48	1.43998e-005
				2396.48	1.43998e-005
				2396.48	1.43998e-005
				2397.95	2.59731e-005
				2397.95	2.59731e-005
				2397.95	2.59731e-005
		2399.41	2.138e-005	2399.41	1.0956e-005
		2399.41	1.0956e-005	2399.41	1.0956e-005
				2399.41	1.0956e-005
				2400.88	2.58221e-005
				2400.88	2.58221e-005
				2400.88	2.58221e-005
		2402.34	6.31282e-006	2402.34	2.66892e-006
		2402.34	2.66892e-006	2402.34	2.66892e-006
				2402.34	2.66892e-006
		2403.81	1.86969e-005	2403.81	1.25772e-005
		2403.81	1.25772e-005	2403.81	1.25772e-005
				2403.81	1.25772e-005
		2405.27	8.76606e-006	2405.27	6.64041e-006
		2405.27	6.64041e-006	2405.27	6.64041e-006
				2405.27	6.64041e-006
				2406.74	2.06971e-005
				2406.74	2.06971e-005
				2406.74	2.06971e-005
		2408.2	2.05013e-005	2408.2	1.02678e-005
		2408.2	1.02678e-005	2408.2	1.02678e-005
				2408.2	1.02678e-005
		2409.67	1.54466e-005	2409.67	8.58708e-006
		2409.67	8.58708e-006	2409.67	8.58708e-006
				2409.67	8.58708e-006
		2411.13	1.53217e-005	2411.13	5.00101e-006
		2411.13	5.00101e-006	2411.13	5.00101e-006
				2411.13	5.00101e-006
				2412.6	1.1549e-005
				2412.6	1.1549e-005
				2412.6	1.1549e-005
		2414.06	2.07315e-005	2414.06	7.35773e-006
		2414.06	7.35773e-006	2414.06	7.35773e-006
				2414.06	7.35773e-006
		2415.53	1.18243e-005	2415.53	1.00222e-005
		2415.53	1.00222e-005	2415.53	1.00222e-005
				2415.53	1.00222e-005
				2416.99	7.16494e-006
				2416.99	7.16494e-006
				2416.99	7.16494e-006
				2418.46	7.99094e-006
				2418.46	7.99094e-006
				2418.46	7.99094e-006
		2419.92	8.64624e-006	2419.92	7.87699e-006
		2419.92	7.87699e-006	2419.92	7.87699e-006
				2419.92	7.87699e-006
				2421.39	6.44376e-006
				2421.39	6.44376e-006
				2421.39	6.44376e-006
				2422.85	1.09811e-005
				2422.85	1.09811e-005
				2422.85	1.09811e-005
				2424.32	1.85702e-005
				2424.32	1.85702e-005
				2424.32	1.85702e-005
		2425.78	1.81846e-005	2425.78	1.49291e-005
		2425.78	1.49291e-005	2425.78	1.49291e-005
				2425.78	1.49291e-005
				2427.25	1.35569e-005
				2427.25	1.35569e-005
				2427.25	1.35569e-005
				2428.71	9.96334e-006
				2428.71	9.96334e-006
				2428.71	9.96334e-006
		2430.18	9.16333e-006	2430.18	3.82813e-006
		2430.18	3.82813e-006	2430.18	3.82813e-006
				2430.18	3.82813e-006
		2431.64	7.27105e-006	2431.64	4.36288e-006
		2431.64	4.36288e-006	2431.64	4.36288e-006
				2431.64	4.36288e-006
		2433.11	2.19489e-005	2433.11	5.32041e-006
		2433.11	5.32041e-006	2433.11	5.32041e-006
				2433.11	5.32041e-006
				2434.57	8.81857e-006
				2434.57	8.81857e-006
				2434.57	8.81857e-006
				2436.04	1.17216e-005
				2436.04	1.17216e-005
				2436.04	1.17216e-005
				2437.5	1.39243e-005
				2437.5	1.39243e-005
				2437.5	1.39243e-005
				2438.96	1.58085e-005
				2438.96	1.58085e-005
				2438.96	1.58085e-005
				2440.43	9.66519e-006
				2440.43	9.66519e-006
				2440.43	9.66519e-006
		2441.89	9.18178e-006	2441.89	5.2852e-006
		2441.89	5.2852e-006	2441.89	5.2852e-006
				2441.89	5.2852e-006
				2443.36	1.74055e-005
				2443.36	1.74055e-005
				2443.36	1.74055e-005
				2444.82	9.1341e-006
				2444.82	9.1341e-006
				2444.82	9.1341e-006
		2446.29	1.13872e-005	2446.29	9.06182e-006
		2446.29	9.06182e-006	2446.29	9.06182e-006
				2446.29	9.06182e-006
				2447.75	6.03398e-006
				2447.75	6.03398e-006
				2447.75	6.03398e-006
				2449.22	7.27131e-006
				2449.22	7.27131e-006
				2449.22	7.27131e-006
		2450.68	1.15975e-005	2450.68	5.03323e-006
		2450.68	5.03323e-006	2450.68	5.03323e-006
				2450.68	5.03323e-006
				2452.15	7.65836e-006
				2452.15	7.65836e-006
				2452.15	7.65836e-006
				2453.61	9.86022e-006
				2453.61	9.86022e-006
				2453.61	9.86022e-006
		2455.08	1.85002e-005	2455.08	1.25209e-005
		2455.08	1.25209e-005	2455.08	1.25209e-005
				2455.08	1.25209e-005
		2456.54	1.28714e-005	2456.54	3.8061e-006
		2456.54	3.8061e-006	2456.54	3.8061e-006
				2456.54	3.8061e-006
		2458.01	7.22514e-006	2458.01	5.48849e-006
		2458.01	5.48849e-006	2458.01	5.48849e-006
				2458.01	5.48849e-006
		2459.47	9.41893e-006	2459.47	4.31666e-006
		2459.47	4.31666e-006	2459.47	4.31666e-006
				2459.47	4.31666e-006
		2460.94	1.91451e-005	2460.94	7.2967e-006
		2460.94	7.2967e-006	2460.94	7.2967e-006
				2460.94	7.2967e-006
				2462.4	1.14808e-005
				2462.4	1.14808e-005
				2462.4	1.14808e-005
		2463.87	1.21105e-005	2463.87	6.04563e-006
		2463.87	6.04563e-006	2463.87	6.04563e-006
				2463.87	6.04563e-006
		2465.33	2.09557e-005	2465.33	1.19362e-005
		2465.33	1.19362e-005	2465.33	1.19362e-005
				2465.33	1.19362e-005
				2466.8	1.43951e-005
				2466.8	1.43951e-005
				2466.8	1.43951e-005
				2468.26	1.09291e-005
				2468.26	1.09291e-005
				2468.26	1.09291e-005
				2469.73	1.29423e-005
				2469.73	1.29423e-005
				2469.73	1.29423e-005
				2471.19	1.19732e-005
				2471.19	1.19732e-005
				2471.19	1.19732e-005
		2472.66	1.44217e-005	2472.66	1.30356e-005
		2472.66	1.30356e-005	2472.66	1.30356e-005
				2472.66	1.30356e-005
				2474.12	1.26885e-005
				2474.12	1.26885e-005
				2474.12	1.26885e-005
		2475.59	1.64951e-005	2475.59	3.59524e-006
		2475.59	3.59524e-006	2475.59	3.59524e-006
				2475.59	3.59524e-006
		2477.05	9.89189e-006	2477.05	7.22176e-006
		2477.05	7.22176e-006	2477.05	7.22176e-006
				2477.05	7.22176e-006
		2478.52	1.0582e-005	2478.52	7.45956e-006
		2478.52	7.45956e-006	2478.52	7.45956e-006
				2478.52	7.45956e-006
		2479.98	1.42364e-005	2479.98	1.18325e-005
		2479.98	1.18325e-005	2479.98	1.18325e-005
				2479.98	1.18325e-005
				2481.45	1.19675e-005
				2481.45	1.19675e-005
				2481.45	1.19675e-005
				2482.91	1.36423e-005
				2482.91	1.36423e-005
				2482.91	1.36423e-005
		2484.38	9.57466e-006	2484.38	4.52814e-006
		2484.38	4.52814e-006	2484.38	4.52814e-006
				2484.38	4.52814e-006
				2485.84	1.27039e-005
				2485.84	1.27039e-005
				2485.84	1.27039e-005
				2487.3	1.22048e-005
				2487.3	1.22048e-005
				2487.3	1.22048e-005
				2488.77	7.2028e-006
				2488.77	7.2028e-006
				2488.77	7.2028e-006
		2490.23	1.05704e-005	2490.23	3.47046e-006
		2490.23	3.47046e-006	2490.23	3.47046e-006
				2490.23	3.47046e-006
		2491.7	7.7136e-006	2491.7	2.28177e-006
		2491.7	2.28177e-006	2491.7	2.28177e-006
				2491.7	2.28177e-006
		2493.16	1.00775e-005	2493.16	9.87477e-006
		2493.16	9.87477e-006	2493.16	9.87477e-006
				2493.16	9.87477e-006
				2494.63	1.19105e-005
				2494.63	1.19105e-005
				2494.63	1.19105e-005
		2496.09	5.90154e-006	2496.09	2.45913e-006
		2496.09	2.45913e-006	2496.09	2.45913e-006
				2496.09	2.45913e-006
				2497.56	1.47912e-005
				2497.56	1.47912e-005
				2497.56	1.47912e-005
		2499.02	5.37943e-006	2499.02	1.40911e-006
		2499.02	1.40911e-006	2499.02	1.40911e-006
				2499.02	1.40911e-006
				2500.49	1.56088e-005
				2500.49	1.56088e-005
				2500.49	1.56088e-005
				2501.95	4.19105e-006
				2501.95	4.19105e-006
				2501.95	4.19105e-006
				2503.42	1.19002e-005
				2503.42	1.19002e-005
				2503.42	1.19002e-005
				2504.88	7.4484e-006
				2504.88	7.4484e-006
				2504.88	7.4484e-006
				2506.35	4.99768e-006
				2506.35	4.99768e-006
				2506.35	4.99768e-006
		2507.81	1.08612e-005	2507.81	5.1095e-006
		2507.81	5.1095e-006	2507.81	5.1095e-006
				2507.81	5.1095e-006
				2509.28	1.81943e-005
				2509.28	1.81943e-005
				2509.28	1.81943e-005
		2510.74	1.58583e-005	2510.74	6.66852e-006
		2510.74	6.66852e-006	2510.74	6.66852e-006
				2510.74	6.66852e-006
		2512.21	1.27108e-005	2512.21	5.28234e-006
		2512.21	5.28234e-006	2512.21	5.28234e-006
				2512.21	5.28234e-006
		2513.67	6.20976e-006	2513.67	5.2582e-006
		2513.67	5.2582e-006	2513.67	5.2582e-006
				2513.67	5.2582e-006
		2515.14	1.43516e-005	2515.14	7.96598e-006
		2515.14	7.96598e-006	2515.14	7.96598e-006
				2515.14	7.96598e-006
		2516.6	1.31905e-005	2516.6	7.07743e-006
		2516.6	7.07743e-006	2516.6	7.07743e-006
				2516.6	7.07743e-006
		2518.07	1.20497e-005	2518.07	5.76886e-006
		2518.07	5.76886e-006	2518.07	5.76886e-006
				2518.07	5.76886e-006
		2519.53	5.50202e-006	2519.53	1.1305e-006
		2519.53	1.1305e-006	2519.53	1.1305e-006
				2519.53	1.1305e-006
				2521	3.85886e-006
				2521	3.85886e-006
				2521	3.85886e-006
		2522.46	6.43999e-006	2522.46	5.037e-006
		2522.46	5.037e-006	2522.46	5.037e-006
				2522.46	5.037e-006
				2523.93	1.36971e-005
				2523.93	1.36971e-005
				2523.93	1.36971e-005
		2525.39	7.95343e-006	2525.39	5.93062e-006
		2525.39	5.93062e-006	2525.39	5.93062e-006
				2525.39	5.93062e-006
		2526.86	1.1503e-005	2526.86	4.2578e-006
		2526.86	4.2578e-006	2526.86	4.2578e-006
				2526.86	4.2578e-006
				2528.32	9.70754e-006
				2528.32	9.70754e-006
				2528.32	9.70754e-006
				2529.79	1.8085e-005
				2529.79	1.8085e-005
				2529.79	1.8085e-005
		2531.25	7.92076e-006	2531.25	4.60027e-006
		2531.25	4.60027e-006	2531.25	4.60027e-006
				2531.25	4.60027e-006
		2532.71	4.47975e-006	2532.71	1.62023e-006
		2532.71	1.62023e-006	2532.71	1.62023e-006
				2532.71	1.62023e-006
				2534.18	1.09551e-005
				2534.18	1.09551e-005
				2534.18	1.09551e-005
				2535.64	1.11976e-005
				2535.64	1.11976e-005
				2535.64	1.11976e-005
		2537.11	1.20732e-005	2537.11	4.73638e-006
		2537.11	4.73638e-006	2537.11	4.73638e-006
				2537.11	4.73638e-006
		2538.57	1.18548e-005	2538.57	5.09025e-006
		2538.57	5.09025e-006	2538.57	5.09025e-006
				2538.57	5.09025e-006
		2540.04	4.81803e-006	2540.04	4.45299e-006
		2540.04	4.45299e-006	2540.04	4.45299e-006
				2540.04	4.45299e-006
				2541.5	1.98231e-005
				2541.5	1.98231e-005
				2541.5	1.98231e-005
				2542.97	7.91499e-006
				2542.97	7.91499e-006
				2542.97	7.91499e-006
		2544.43	7.83628e-006	2544.43	7.02409e-006
		2544.43	7.02409e-006	2544.43	7.02409e-006
				2544.43	7.02409e-006
				2545.9	7.73921e-006
				2545.9	7.73921e-006
				2545.9	7.73921e-006
				2547.36	9.32685e-006
				2547.36	9.32685e-006
				2547.36	9.32685e-006
		2548.83	8.15111e-006	2548.83	5.35637e-006
		2548.83	5.35637e-006	2548.83	5.35637e-006
				2548.83	5.35637e-006
		2550.29	4.74316e-006	2550.29	1.58494e-006
		2550.29	1.58494e-006	2550.29	1.58494e-006
				2550.29	1.58494e-006
				2551.76	8.55437e-006
				2551.76	8.55437e-006
				2551.76	8.55437e-006
				2553.22	1.0708e-005
				2553.22	1.0708e-005
				2553.22	1.0708e-005
				2554.69	1.01369e-005
				2554.69	1.01369e-005
				2554.69	1.01369e-005
		2556.15	8.57546e-006	2556.15	7.06142e-006
		2556.15	7.06142e-006	2556.15	7.06142e-006
				2556.15	7.06142e-006
				2557.62	3.31361e-006
				2557.62	3.31361e-006
				2557.62	3.31361e-006
				2559.08	7.60276e-006
				2559.08	7.60276e-006
				2559.08	7.60276e-006
				2560.55	3.0604e-005
				2560.55	3.0604e-005
				2560.55	3.0604e-005
		2562.01	2.64504e-006	2562.01	1.31591e-006
		2562.01	1.31591e-006	2562.01	1.31591e-006
				2562.01	1.31591e-006
		2563.48	1.05932e-005	2563.48	5.92424e-006
		2563.48	5.92424e-006	2563.48	5.92424e-006
				2563.48	5.92424e-006
		2564.94	6.83869e-006	2564.94	6.63677e-006
		2564.94	6.63677e-006	2564.94	6.63677e-006
				2564.94	6.63677e-006
		2566.41	1.43341e-005	2566.41	7.13866e-006
		2566.41	7.13866e-006	2566.41	7.13866e-006
				2566.41	7.13866e-006
				2567.87	1.43495e-005
				2567.87	1.43495e-005
				2567.87	1.43495e-005
				2569.34	9.22504e-006
				2569.34	9.22504e-006
				2569.34	9.22504e-006
				2570.8	1.01526e-005
				2570.8	1.01526e-005
				2570.8	1.01526e-005
				2572.27	5.39436e-006
				2572.27	5.39436e-006
				2572.27	5.39436e-006
				2573.73	5.83097e-006
				2573.73	5.83097e-006
				2573.73	5.83097e-006
		2575.2	8.59474e-006	2575.2	5.18879e-006
		2575.2	5.18879e-006	2575.2	5.18879e-006
				2575.2	5.18879e-006
		2576.66	1.514e-005	2576.66	2.33261e-006
		2576.66	2.33261e-006	2576.66	2.33261e-006
				2576.66	2.33261e-006
		2578.13	9.44542e-006	2578.13	4.97593e-006
		2578.13	4.97593e-006	2578.13	4.97593e-006
				2578.13	4.97593e-006
		2579.59	6.41469e-006	2579.59	6.12596e-006
		2579.59	6.12596e-006	2579.59	6.12596e-006
				2579.59	6.12596e-006
		2581.05	7.90679e-006	2581.05	6.50796e-006
		2581.05	6.50796e-006	2581.05	6.50796e-006
				2581.05	6.50796e-006
				2582.52	5.30085e-006
				2582.52	5.30085e-006
				2582.52	5.30085e-006
		2583.98	4.15791e-006	2583.98	3.22337e-006
		2583.98	3.22337e-006	2583.98	3.22337e-006
				2583.98	3.22337e-006
				2585.45	1.12216e-005
				2585.45	1.12216e-005
				2585.45	1.12216e-005
				2586.91	4.52239e-006
				2586.91	4.52239e-006
				2586.91	4.52239e-006
		2588.38	7.01228e-006	2588.38	2.26084e-006
		2588.38	2.26084e-006	2588.38	2.26084e-006
				2588.38	2.26084e-006
				2589.84	7.59963e-006
				2589.84	7.59963e-006
				2589.84	7.59963e-006
				2591.31	3.7187e-006
				2591.31	3.7187e-006
				2591.31	3.7187e-006
		2592.77	4.15713e-006	2592.77	3.24223e-006
		2592.77	3.24223e-006	2592.77	3.24223e-006
				2592.77	3.24223e-006
		2594.24	1.48284e-005	2594.24	5.56886e-006
		2594.24	5.56886e-006	2594.24	5.56886e-006
				2594.24	5.56886e-006
		2595.7	5.59422e-006	2595.7	5.01071e-006
		2595.7	5.01071e-006	2595.7	5.01071e-006
				2595.7	5.01071e-006
				2597.17	3.79978e-006
				2597.17	3.79978e-006
				2597.17	3.79978e-006
				2598.63	7.64821e-006
				2598.63	7.64821e-006
				2598.63	7.64821e-006
				2600.1	8.98285e-006
				2600.1	8.98285e-006
				2600.1	8.98285e-006
				2601.56	6.15731e-006
				2601.56	6.15731e-006
				2601.56	6.15731e-006
				2603.03	7.08608e-006
				2603.03	7.08608e-006
				2603.03	7.08608e-006
				2604.49	2.24078e-006
				2604.49	2.24078e-006
				2604.49	2.24078e-006
		2605.96	9.25615e-006	2605.96	2.33911e-006
		2605.96	2.33911e-006	2605.96	2.33911e-006
				2605.96	2.33911e-006
		2607.42	6.77533e-006	2607.42	4.55785e-006
		2607.42	4.55785e-006	2607.42	4.55785e-006
				2607.42	4.55785e-006
		2608.89	4.86978e-006	2608.89	3.85379e-006
		2608.89	3.85379e-006	2608.89	3.85379e-006
				2608.89	3.85379e-006
		2610.35	5.35894e-006	2610.35	5.32414e-006
		2610.35	5.32414e-006	2610.35	5.32414e-006
				2610.35	5.32414e-006
				2611.82	5.3293e-006
				2611.82	5.3293e-006
				2611.82	5.3293e-006
				2613.28	5.31635e-006
				2613.28	5.31635e-006
				2613.28	5.31635e-006
		2614.75	8.78573e-006	2614.75	4.6259e-006
		2614.75	4.6259e-006	2614.75	4.6259e-006
				2614.75	4.6259e-006
		2616.21	7.64114e-006	2616.21	4.11667e-006
		2616.21	4.11667e-006	2616.21	4.11667e-006
				2616.21	4.11667e-006
				2617.68	9.97473e-006
				2617.68	9.97473e-006
				2617.68	9.97473e-006
				2619.14	8.58678e-006
				2619.14	8.58678e-006
				2619.14	8.58678e-006
				2620.61	6.80598e-006
				2620.61	6.80598e-006
				2620.61	6.80598e-006
				2622.07	5.04372e-006
				2622.07	5.04372e-006
				2622.07	5.04372e-006
		2623.54	8.10267e-006	2623.54	2.66613e-006
		2623.54	2.66613e-006	2623.54	2.66613e-006
				2623.54	2.66613e-006
				2625	6.88109e-006
				2625	6.88109e-006
				2625	6.88109e-006
				2626.46	9.09728e-006
				2626.46	9.09728e-006
				2626.46	9.09728e-006
				2627.93	6.20556e-006
				2627.93	6.20556e-006
				2627.93	6.20556e-006
		2629.39	1.42998e-005	2629.39	6.31878e-006
		2629.39	6.31878e-006	2629.39	6.31878e-006
				2629.39	6.31878e-006
				2630.86	3.82253e-006
				2630.86	3.82253e-006
				2630.86	3.82253e-006
		2632.32	4.5194e-006	2632.32	1.5631e-006
		2632.32	1.5631e-006	2632.32	1.5631e-006
				2632.32	1.5631e-006
		2633.79	2.84267e-006	2633.79	7.96371e-007
		2633.79	7.96371e-007	2633.79	7.96371e-007
				2633.79	7.96371e-007
				2635.25	7.64958e-006
				2635.25	7.64958e-006
				2635.25	7.64958e-006
		2636.72	5.42592e-006	2636.72	3.87393e-006
		2636.72	3.87393e-006	2636.72	3.87393e-006
				2636.72	3.87393e-006
				2638.18	6.53238e-006
				2638.18	6.53238e-006
				2638.18	6.53238e-006
				2639.65	9.68457e-006
				2639.65	9.68457e-006
				2639.65	9.68457e-006
		2641.11	8.98475e-006	2641.11	8.26064e-006
		2641.11	8.26064e-006	2641.11	8.26064e-006
				2641.11	8.26064e-006
				2642.58	5.6552e-006
				2642.58	5.6552e-006
				2642.58	5.6552e-006
		2644.04	6.19073e-006	2644.04	4.56869e-006
		2644.04	4.56869e-006	2644.04	4.56869e-006
				2644.04	4.56869e-006
		2645.51	7.53876e-006	2645.51	6.56418e-006
		2645.51	6.56418e-006	2645.51	6.56418e-006
				2645.51	6.56418e-006
				2646.97	3.45701e-006
				2646.97	3.45701e-006
				2646.97	3.45701e-006
		2648.44	5.30549e-006	2648.44	3.28718e-007
		2648.44	3.28718e-007	2648.44	3.28718e-007
				2648.44	3.28718e-007
		2649.9	2.31375e-006	2649.9	1.9007e-006
		2649.9	1.9007e-006	2649.9	1.9007e-006
				2649.9	1.9007e-006
		2651.37	6.48605e-006	2651.37	1.82976e-006
		2651.37	1.82976e-006	2651.37	1.82976e-006
				2651.37	1.82976e-006
				2652.83	7.55624e-006
				2652.83	7.55624e-006
				2652.83	7.55624e-006
				2654.3	4.53109e-006
				2654.3	4.53109e-006
				2654.3	4.53109e-006
				2655.76	7.13214e-006
				2655.76	7.13214e-006
				2655.76	7.13214e-006
		2657.23	3.05117e-006	2657.23	2.73933e-006
		2657.23	2.73933e-006	2657.23	2.73933e-006
				2657.23	2.73933e-006
				2658.69	5.24893e-006
				2658.69	5.24893e-006
				2658.69	5.24893e-006
		2660.16	3.16018e-006	2660.16	3.01566e-006
		2660.16	3.01566e-006	2660.16	3.01566e-006
				2660.16	3.01566e-006
				2661.62	7.92697e-006
				2661.62	7.92697e-006
				2661.62	7.92697e-006
				2663.09	5.76946e-006
				2663.09	5.76946e-006
				2663.09	5.76946e-006
				2664.55	5.48987e-006
				2664.55	5.48987e-006
				2664.55	5.48987e-006
		2666.02	8.07186e-006	2666.02	3.52431e-006
		2666.02	3.52431e-006	2666.02	3.52431e-006
				2666.02	3.52431e-006
				2667.48	4.92632e-006
				2667.48	4.92632e-006
				2667.48	4.92632e-006
				2668.95	5.17506e-006
				2668.95	5.17506e-006
				2668.95	5.17506e-006
		2670.41	5.70806e-006	2670.41	3.16901e-006
		2670.41	3.16901e-006	2670.41	3.16901e-006
				2670.41	3.16901e-006
				2671.88	6.47557e-006
				2671.88	6.47557e-006
				2671.88	6.47557e-006
		2673.34	5.9064e-006	2673.34	1.88833e-006
		2673.34	1.88833e-006	2673.34	1.88833e-006
				2673.34	1.88833e-006
				2674.8	5.63503e-006
				2674.8	5.63503e-006
				2674.8	5.63503e-006
				2676.27	3.54084e-006
				2676.27	3.54084e-006
				2676.27	3.54084e-006
				2677.73	4.21583e-006
				2677.73	4.21583e-006
				2677.73	4.21583e-006
				2679.2	3.91806e-006
				2679.2	3.91806e-006
				2679.2	3.91806e-006
		2680.66	1.97933e-006	2680.66	1.87419e-006
		2680.66	1.87419e-006	2680.66	1.87419e-006
				2680.66	1.87419e-006
		2682.13	2.92653e-006	2682.13	1.77361e-006
		2682.13	1.77361e-006	2682.13	1.77361e-006
				2682.13	1.77361e-006
				2683.59	5.62301e-006
				2683.59	5.62301e-006
				2683.59	5.62301e-006
		2685.06	3.35851e-006	2685.06	3.34022e-006
		2685.06	3.34022e-006	2685.06	3.34022e-006
				2685.06	3.34022e-006
		2686.52	5.28086e-006	2686.52	2.93649e-006
		2686.52	2.93649e-006	2686.52	2.93649e-006
				2686.52	2.93649e-006
		2687.99	1.8795e-006	2687.99	1.79224e-006
		2687.99	1.79224e-006	2687.99	1.79224e-006
				2687.99	1.79224e-006
		2689.45	2.30862e-006	2689.45	1.73643e-006
		2689.45	1.73643e-006	2689.45	1.73643e-006
				2689.45	1.73643e-006
		2690.92	2.82598e-006	2690.92	1.52621e-006
		2690.92	1.52621e-006	2690.92	1.52621e-006
				2690.92	1.52621e-006
		2692.38	2.4184e-006	2692.38	1.52086e-006
		2692.38	1.52086e-006	2692.38	1.52086e-006
				2692.38	1.52086e-006
				2693.85	6.22802e-006
				2693.85	6.22802e-006
				2693.85	6.22802e-006
				2695.31	2.96444e-006
				2695.31	2.96444e-006
				2695.31	2.96444e-006
				2696.78	7.88672e-006
				2696.78	7.88672e-006
				2696.78	7.88672e-006
		2698.24	7.09111e-006	2698.24	3.45021e-006
		2698.24	3.45021e-006	2698.24	3.45021e-006
				2698.24	3.45021e-006
				2699.71	3.71941e-006
				2699.71	3.71941e-006
				2699.71	3.71941e-006
		2701.17	7.1028e-006	2701.17	2.02762e-006
		2701.17	2.02762e-006	2701.17	2.02762e-006
				2701.17	2.02762e-006
				2702.64	6.49565e-006
				2702.64	6.49565e-006
				2702.64	6.49565e-006
				2704.1	3.32739e-006
				2704.1	3.32739e-006
				2704.1	3.32739e-006
				2705.57	4.21832e-006
				2705.57	4.21832e-006
				2705.57	4.21832e-006
		2707.03	4.88434e-006	2707.03	4.09629e-006
		2707.03	4.09629e-006	2707.03	4.09629e-006
				2707.03	4.09629e-006
				2708.5	3.6679e-006
				2708.5	3.6679e-006
				2708.5	3.6679e-006
				2709.96	5.39771e-006
				2709.96	5.39771e-006
				2709.96	5.39771e-006
		2711.43	4.87142e-006	2711.43	3.20422e-006
		2711.43	3.20422e-006	2711.43	3.20422e-006
				2711.43	3.20422e-006
				2712.89	2.27654e-006
				2712.89	2.27654e-006
				2712.89	2.27654e-006
				2714.36	4.29796e-006
				2714.36	4.29796e-006
				2714.36	4.29796e-006
		2715.82	3.40347e-006	2715.82	2.39507e-006
		2715.82	2.39507e-006	2715.82	2.39507e-006
				2715.82	2.39507e-006
				2717.29	2.7306e-006
				2717.29	2.7306e-006
				2717.29	2.7306e-006
		2718.75	3.06987e-006	2718.75	2.31695e-006
		2718.75	2.31695e-006	2718.75	2.31695e-006
				2718.75	2.31695e-006
				2720.21	4.90465e-006
				2720.21	4.90465e-006
				2720.21	4.90465e-006
				2721.68	2.94261e-006
				2721.68	2.94261e-006
				2721.68	2.94261e-006
		2723.14	5.14929e-006	2723.14	1.39285e-006
		2723.14	1.39285e-006	2723.14	1.39285e-006
				2723.14	1.39285e-006
				2724.61	1.54536e-006
				2724.61	1.54536e-006
				2724.61	1.54536e-006
		2726.07	2.68055e-006	2726.07	1.808e-006
		2726.07	1.808e-006	2726.07	1.808e-006
				2726.07	1.808e-006
		2727.54	4.65512e-006	2727.54	3.87098e-006
		2727.54	3.87098e-006	2727.54	3.87098e-006
				2727.54	3.87098e-006
				2729	4.73076e-006
				2729	4.73076e-006
				2729	4.73076e-006
				2730.47	1.6998e-006
				2730.47	1.6998e-006
				2730.47	1.6998e-006
		2731.93	3.97702e-006	2731.93	1.13062e-006
		2731.93	1.13062e-006	2731.93	1.13062e-006
				2731.93	1.13062e-006
		2733.4	5.54597e-006	2733.4	4.72838e-006
		2733.4	4.72838e-006	2733.4	4.72838e-006
				2733.4	4.72838e-006
				2734.86	2.43895e-006
				2734.86	2.43895e-006
				2734.86	2.43895e-006
		2736.33	3.25257e-006	2736.33	1.33178e-006
		2736.33	1.33178e-006	2736.33	1.33178e-006
				2736.33	1.33178e-006
		2737.79	3.01675e-006	2737.79	1.69871e-007
		2737.79	1.69871e-007	2737.79	1.69871e-007
				2737.79	1.69871e-007
		2739.26	2.69259e-006	2739.26	1.91149e-006
		2739.26	1.91149e-006	2739.26	1.91149e-006
				2739.26	1.91149e-006
		2740.72	1.72661e-006	2740.72	1.1533e-006
		2740.72	1.1533e-006	2740.72	1.1533e-006
				2740.72	1.1533e-006
				2742.19	3.33939e-006
				2742.19	3.33939e-006
				2742.19	3.33939e-006
				2743.65	2.41301e-006
				2743.65	2.41301e-006
				2743.65	2.41301e-006
		2745.12	2.77416e-006	2745.12	1.41916e-006
		2745.12	1.41916e-006	2745.12	1.41916e-006
				2745.12	1.41916e-006
		2746.58	4.1873e-006	2746.58	1.24844e-006
		2746.58	1.24844e-006	2746.58	1.24844e-006
				2746.58	1.24844e-006
		2748.05	2.88668e-006	2748.05	1.10098e-006
		2748.05	1.10098e-006	2748.05	1.10098e-006
				2748.05	1.10098e-006
				2749.51	4.00359e-006
				2749.51	4.00359e-006
				2749.51	4.00359e-006
		2750.98	2.96472e-006	2750.98	9.23749e-007
		2750.98	9.23749e-007	2750.98	9.23749e-007
				2750.98	9.23749e-007
				2752.44	3.55291e-006
				2752.44	3.55291e-006
				2752.44	3.55291e-006
				2753.91	3.5606e-006
				2753.91	3.5606e-006
				2753.91	3.5606e-006
				2755.37	2.83199e-006
				2755.37	2.83199e-006
				2755.37	2.83199e-006
				2756.84	3.0054e-006
				2756.84	3.0054e-006
				2756.84	3.0054e-006
				2758.3	3.22637e-006
				2758.3	3.22637e-006
				2758.3	3.22637e-006
				2759.77	2.66362e-006
				2759.77	2.66362e-006
				2759.77	2.66362e-006
		2761.23	3.40254e-006	2761.23	1.14862e-006
		2761.23	1.14862e-006	2761.23	1.14862e-006
				2761.23	1.14862e-006
				2762.7	3.55435e-006
				2762.7	3.55435e-006
				2762.7	3.55435e-006
				2764.16	4.08576e-006
				2764.16	4.08576e-006
				2764.16	4.08576e-006
				2765.63	8.54947e-007
				2765.63	8.54947e-007
				2765.63	8.54947e-007
				2767.09	2.31768e-006
				2767.09	2.31768e-006
				2767.09	2.31768e-006
		2768.55	3.05676e-006	2768.55	3.00945e-006
		2768.55	3.00945e-006	2768.55	3.00945e-006
				2768.55	3.00945e-006
		2770.02	1.02437e-006	2770.02	3.37619e-007
		2770.02	3.37619e-007	2770.02	3.37619e-007
				2770.02	3.37619e-007
				2771.48	2.72666e-006
				2771.48	2.72666e-006
				2771.48	2.72666e-006
		2772.95	3.45454e-006	2772.95	5.40037e-007
		2772.95	5.40037e-007	2772.95	5.40037e-007
				2772.95	5.40037e-007
				2774.41	1.03286e-006
				2774.41	1.03286e-006
				2774.41	1.03286e-006
		2775.88	1.70861e-006	2775.88	8.16064e-008
		2775.88	8.16064e-008	2775.88	8.16064e-008
				2775.88	8.16064e-008
				2777.34	2.19807e-006
				2777.34	2.19807e-006
				2777.34	2.19807e-006
				2778.81	1.37954e-006
				2778.81	1.37954e-006
				2778.81	1.37954e-006
				2780.27	1.32542e-006
				2780.27	1.32542e-006
				2780.27	1.32542e-006
				2781.74	2.88467e-006
				2781.74	2.88467e-006
				2781.74	2.88467e-006
		2783.2	1.79377e-006	2783.2	8.05248e-007
		2783.2	8.05248e-007	2783.2	8.05248e-007
				2783.2	8.05248e-007
		2784.67	1.64993e-006	2784.67	1.75595e-007
		2784.67	1.75595e-007	2784.67	1.75595e-007
				2784.67	1.75595e-007
		2786.13	2.93545e-006	2786.13	1.28735e-006
		2786.13	1.28735e-006	2786.13	1.28735e-006
				2786.13	1.28735e-006
		2787.6	1.44769e-006	2787.6	1.03108e-006
		2787.6	1.03108e-006	2787.6	1.03108e-006
				2787.6	1.03108e-006
				2789.06	1.17431e-006
				2789.06	1.17431e-006
				2789.06	1.17431e-006
		2790.53	2.44299e-006	2790.53	7.04075e-007
		2790.53	7.04075e-007	2790.53	7.04075e-007
				2790.53	7.04075e-007
				2791.99	2.53168e-006
				2791.99	2.53168e-006
				2791.99	2.53168e-006
				2793.46	1.40845e-006
				2793.46	1.40845e-006
				2793.46	1.40845e-006
		2794.92	5.24003e-007	2794.92	3.4388e-007
		2794.92	3.4388e-007	2794.92	3.4388e-007
				2794.92	3.4388e-007
		2796.39	1.989e-006	2796.39	1.82463e-006
		2796.39	1.82463e-006	2796.39	1.82463e-006
				2796.39	1.82463e-006
				2797.85	1.32519e-006
				2797.85	1.32519e-006
				2797.85	1.32519e-006
		2799.32	1.68853e-006	2799.32	1.34176e-006
		2799.32	1.34176e-006	2799.32	1.34176e-006
				2799.32	1.34176e-006
		2800.78	1.74261e-006	2800.78	1.36591e-006
		2800.78	1.36591e-006	2800.78	1.36591e-006
				2800.78	1.36591e-006
				2802.25	1.48632e-006
				2802.25	1.48632e-006
				2802.25	1.48632e-006
		2803.71	1.90787e-006	2803.71	1.2766e-006
		2803.71	1.2766e-006	2803.71	1.2766e-006
				2803.71	1.2766e-006
				2805.18	9.04828e-007
				2805.18	9.04828e-007
				2805.18	9.04828e-007
				2806.64	1.61606e-006
				2806.64	1.61606e-006
				2806.64	1.61606e-006
				2808.11	1.80017e-006
				2808.11	1.80017e-006
				2808.11	1.80017e-006
				2809.57	3.2561e-006
				2809.57	3.2561e-006
				2809.57	3.2561e-006
				2811.04	1.48638e-006
				2811.04	1.48638e-006
				2811.04	1.48638e-006
		2812.5	1.75636e-006	2812.5	1.05468e-006
		2812.5	1.05468e-006	2812.5	1.05468e-006
				2812.5	1.05468e-006
				2813.96	3.85557e-007
				2813.96	3.85557e-007
				2813.96	3.85557e-007
				2815.43	1.87065e-006
				2815.43	1.87065e-006
				2815.43	1.87065e-006
				2816.89	1.2983e-006
				2816.89	1.2983e-006
				2816.89	1.2983e-006
				2818.36	8.28192e-007
				2818.36	8.28192e-007
				2818.36	8.28192e-007
				2819.82	1.92929e-006
				2819.82	1.92929e-006
				2819.82	1.92929e-006
				2821.29	1.58383e-006
				2821.29	1.58383e-006
				2821.29	1.58383e-006
				2822.75	1.37363e-006
				2822.75	1.37363e-006
				2822.75	1.37363e-006
				2824.22	1.00459e-006
				2824.22	1.00459e-006
				2824.22	1.00459e-006
		2825.68	1.22559e-006	2825.68	1.0459e-006
		2825.68	1.0459e-006	2825.68	1.0459e-006
				2825.68	1.0459e-006
				2827.15	1.22587e-006
				2827.15	1.22587e-006
				2827.15	1.22587e-006
				2828.61	1.67735e-006
				2828.61	1.67735e-006
				2828.61	1.67735e-006
				2830.08	9.73533e-007
				2830.08	9.73533e-007
				2830.08	9.73533e-007
				2831.54	1.69372e-006
				2831.54	1.69372e-006
				2831.54	1.69372e-006
				2833.01	9.58145e-007
				2833.01	9.58145e-007
				2833.01	9.58145e-007
				2834.47	6.66719e-007
				2834.47	6.66719e-007
				2834.47	6.66719e-007
		2835.94	7.05456e-007	2835.94	6.06646e-007
		2835.94	6.06646e-007	2835.94	6.06646e-007
				2835.94	6.06646e-007
				2837.4	1.89034e-006
				2837.4	1.89034e-006
				2837.4	1.89034e-006
				2838.87	1.58301e-006
				2838.87	1.58301e-006
				2838.87	1.58301e-006
		2840.33	1.77389e-006	2840.33	6.10743e-007
		2840.33	6.10743e-007	2840.33	6.10743e-007
				2840.33	6.10743e-007
				2841.8	9.66288e-007
				2841.8	9.66288e-007
				2841.8	9.66288e-007
				2843.26	2.77631e-006
				2843.26	2.77631e-006
				2843.26	2.77631e-006
				2844.73	1.64555e-006
				2844.73	1.64555e-006
				2844.73	1.64555e-006
				2846.19	2.2771e-006
				2846.19	2.2771e-006
				2846.19	2.2771e-006
		2847.66	1.2573e-006	2847.66	5.2475e-007
		2847.66	5.2475e-007	2847.66	5.2475e-007
				2847.66	5.2475e-007
				2849.12	7.25784e-007
				2849.12	7.25784e-007
				2849.12	7.25784e-007
				2850.59	1.16702e-006
				2850.59	1.16702e-006
				2850.59	1.16702e-006
		2852.05	1.04036e-006	2852.05	8.64666e-007
		2852.05	8.64666e-007	2852.05	8.64666e-007
				2852.05	8.64666e-007
				2853.52	1.66186e-006
				2853.52	1.66186e-006
				2853.52	1.66186e-006
		2854.98	1.36368e-006	2854.98	2.93241e-007
		2854.98	2.93241e-007	2854.98	2.93241e-007
				2854.98	2.93241e-007
				2856.45	1.02012e-006
				2856.45	1.02012e-006
				2856.45	1.02012e-006
				2857.91	1.29186e-006
				2857.91	1.29186e-006
				2857.91	1.29186e-006
				2859.38	8.41359e-007
				2859.38	8.41359e-007
				2859.38	8.41359e-007
				2860.84	1.97862e-006
				2860.84	1.97862e-006
				2860.84	1.97862e-006
				2862.3	6.03454e-007
				2862.3	6.03454e-007
				2862.3	6.03454e-007
				2863.77	1.22313e-006
				2863.77	1.22313e-006
				2863.77	1.22313e-006
				2865.23	1.36223e-006
				2865.23	1.36223e-006
				2865.23	1.36223e-006
				2866.7	5.06863e-007
				2866.7	5.06863e-007
				2866.7	5.06863e-007
		2868.16	1.05372e-006	2868.16	3.15001e-007
		2868.16	3.15001e-007	2868.16	3.15001e-007
				2868.16	3.15001e-007
				2869.63	1.06616e-006
				2869.63	1.06616e-006
				2869.63	1.06616e-006
				2871.09	9.12825e-007
				2871.09	9.12825e-007
				2871.09	9.12825e-007
		2872.56	1.17304e-006	2872.56	8.69852e-007
		2872.56	8.69852e-007	2872.56	8.69852e-007
				2872.56	8.69852e-007
		2874.02	8.70329e-007	2874.02	3.75404e-007
		2874.02	3.75404e-007	2874.02	3.75404e-007
				2874.02	3.75404e-007
				2875.49	1.79288e-006
				2875.49	1.79288e-006
				2875.49	1.79288e-006
				2876.95	9.53955e-007
				2876.95	9.53955e-007
				2876.95	9.53955e-007
				2878.42	1.35595e-006
				2878.42	1.35595e-006
				2878.42	1.35595e-006
				2879.88	1.38871e-006
				2879.88	1.38871e-006
				2879.88	1.38871e-006
				2881.35	1.99453e-006
				2881.35	1.99453e-006
				2881.35	1.99453e-006
				2882.81	1.3753e-006
				2882.81	1.3753e-006
				2882.81	1.3753e-006
		2884.28	7.79773e-007	2884.28	4.68767e-007
		2884.28	4.68767e-007	2884.28	4.68767e-007
				2884.28	4.68767e-007
				2885.74	1.2181e-006
				2885.74	1.2181e-006
				2885.74	1.2181e-006
				2887.21	9.7325e-007
				2887.21	9.7325e-007
				2887.21	9.7325e-007
		2888.67	1.30585e-006	2888.67	1.15322e-006
		2888.67	1.15322e-006	2888.67	1.15322e-006
				2888.67	1.15322e-006
		2890.14	9.54503e-007	2890.14	6.56476e-007
		2890.14	6.56476e-007	2890.14	6.56476e-007
				2890.14	6.56476e-007
				2891.6	1.2401e-006
				2891.6	1.2401e-006
				2891.6	1.2401e-006
				2893.07	1.32098e-006
				2893.07	1.32098e-006
				2893.07	1.32098e-006
				2894.53	1.59326e-006
				2894.53	1.59326e-006
				2894.53	1.59326e-006
				2896	2.15864e-006
				2896	2.15864e-006
				2896	2.15864e-006
		2897.46	1.12072e-006	2897.46	1.10888e-006
		2897.46	1.10888e-006	2897.46	1.10888e-006
				2897.46	1.10888e-006
		2898.93	1.75619e-006	2898.93	1.34225e-006
		2898.93	1.34225e-006	2898.93	1.34225e-006
				2898.93	1.34225e-006
				2900.39	1.20413e-006
				2900.39	1.20413e-006
				2900.39	1.20413e-006
				2901.86	1.60155e-006
				2901.86	1.60155e-006
				2901.86	1.60155e-006
				2903.32	8.66584e-007
				2903.32	8.66584e-007
				2903.32	8.66584e-007
		2904.79	9.60517e-007	2904.79	8.82705e-007
		2904.79	8.82705e-007	2904.79	8.82705e-007
				2904.79	8.82705e-007
				2906.25	1.48197e-006
				2906.25	1.48197e-006
				2906.25	1.48197e-006
				2907.71	1.52207e-006
				2907.71	1.52207e-006
				2907.71	1.52207e-006
				2909.18	1.88732e-006
				2909.18	1.88732e-006
				2909.18	1.88732e-006
				2910.64	1.27768e-006
				2910.64	1.27768e-006
				2910.64	1.27768e-006
				2912.11	1.18907e-006
				2912.11	1.18907e-006
				2912.11	1.18907e-006
				2913.57	1.85864e-006
				2913.57	1.85864e-006
				2913.57	1.85864e-006
				2915.04	1.27837e-006
				2915.04	1.27837e-006
				2915.04	1.27837e-006
				2916.5	4.11059e-007
				2916.5	4.11059e-007
				2916.5	4.11059e-007
				2917.97	1.31423e-006
				2917.97	1.31423e-006
				2917.97	1.31423e-006
				2919.43	1.34432e-006
				2919.43	1.34432e-006
				2919.43	1.34432e-006
				2920.9	1.44256e-006
				2920.9	1.44256e-006
				2920.9	1.44256e-006
				2922.36	1.79327e-006
				2922.36	1.79327e-006
				2922.36	1.79327e-006
				2923.83	9.15106e-007
				2923.83	9.15106e-007
				2923.83	9.15106e-007
				2925.29	1.20878e-006
				2925.29	1.20878e-006
				2925.29	1.20878e-006
		2926.76	7.40623e-007	2926.76	5.5704e-007
		2926.76	5.5704e-007	2926.76	5.5704e-007
				2926.76	5.5704e-007
				2928.22	1.49024e-006
				2928.22	1.49024e-006
				2928.22	1.49024e-006
				2929.69	2.00948e-006
				2929.69	2.00948e-006
				2929.69	2.00948e-006
				2931.15	4.36675e-007
				2931.15	4.36675e-007
				2931.15	4.36675e-007
				2932.62	1.02555e-006
				2932.62	1.02555e-006
				2932.62	1.02555e-006
				2934.08	4.00413e-007
				2934.08	4.00413e-007
				2934.08	4.00413e-007
				2935.55	1.88634e-006
				2935.55	1.88634e-006
				2935.55	1.88634e-006
		2937.01	7.28095e-007	2937.01	6.87106e-007
		2937.01	6.87106e-007	2937.01	6.87106e-007
				2937.01	6.87106e-007
				2938.48	1.0332e-006
				2938.48	1.0332e-006
				2938.48	1.0332e-006
				2939.94	1.38276e-006
				2939.94	1.38276e-006
				2939.94	1.38276e-006
				2941.41	1.20179e-006
				2941.41	1.20179e-006
				2941.41	1.20179e-006
				2942.87	9.67328e-007
				2942.87	9.67328e-007
				2942.87	9.67328e-007
				2944.34	7.64817e-007
				2944.34	7.64817e-007
				2944.34	7.64817e-007
				2945.8	1.00157e-006
				2945.8	1.00157e-006
				2945.8	1.00157e-006
				2947.27	1.27584e-006
				2947.27	1.27584e-006
				2947.27	1.27584e-006
				2948.73	1.16499e-006
				2948.73	1.16499e-006
				2948.73	1.16499e-006
				2950.2	1.97701e-006
				2950.2	1.97701e-006
				2950.2	1.97701e-006
		2951.66	1.16924e-006	2951.66	7.67256e-007
		2951.66	7.67256e-007	2951.66	7.67256e-007
				2951.66	7.67256e-007
				2953.13	8.98245e-007
				2953.13	8.98245e-007
				2953.13	8.98245e-007
		2954.59	1.11655e-006	2954.59	7.50643e-007
		2954.59	7.50643e-007	2954.59	7.50643e-007
				2954.59	7.50643e-007
		2956.05	1.07626e-006	2956.05	9.03193e-007
		2956.05	9.03193e-007	2956.05	9.03193e-007
				2956.05	9.03193e-007
				2957.52	8.08708e-007
				2957.52	8.08708e-007
				2957.52	8.08708e-007
				2958.98	7.9826e-007
				2958.98	7.9826e-007
				2958.98	7.9826e-007
				2960.45	1.7983e-006
				2960.45	1.7983e-006
				2960.45	1.7983e-006
				2961.91	8.57322e-007
				2961.91	8.57322e-007
				2961.91	8.57322e-007
				2963.38	8.26181e-007
				2963.38	8.26181e-007
				2963.38	8.26181e-007
				2964.84	1.52765e-006
				2964.84	1.52765e-006
				2964.84	1.52765e-006
				2966.31	2.08295e-006
				2966.31	2.08295e-006
				2966.31	2.08295e-006
				2967.77	5.69272e-007
				2967.77	5.69272e-007
				2967.77	5.69272e-007
				2969.24	1.22937e-006
				2969.24	1.22937e-006
				2969.24	1.22937e-006
				2970.7	1.24595e-006
				2970.7	1.24595e-006
				2970.7	1.24595e-006
				2972.17	1.37218e-006
				2972.17	1.37218e-006
				2972.17	1.37218e-006
				2973.63	1.40535e-006
				2973.63	1.40535e-006
				2973.63	1.40535e-006
		2975.1	2.57466e-007	2975.1	1.57821e-007
		2975.1	1.57821e-007	2975.1	1.57821e-007
				2975.1	1.57821e-007
				2976.56	1.08144e-006
				2976.56	1.08144e-006
				2976.56	1.08144e-006
				2978.03	8.51185e-007
				2978.03	8.51185e-007
				2978.03	8.51185e-007
				2979.49	2.07992e-006
				2979.49	2.07992e-006
				2979.49	2.07992e-006
				2980.96	1.58901e-006
				2980.96	1.58901e-006
				2980.96	1.58901e-006
		2982.42	8.09209e-007	2982.42	6.7919e-007
		2982.42	6.7919e-007	2982.42	6.7919e-007
				2982.42	6.7919e-007
				2983.89	8.93705e-007
				2983.89	8.93705e-007
				2983.89	8.93705e-007
				2985.35	1.74157e-006
				2985.35	1.74157e-006
				2985.35	1.74157e-006
		2986.82	1.11881e-006	2986.82	8.07262e-007
		2986.82	8.07262e-007	2986.82	8.07262e-007
				2986.82	8.07262e-007
		2988.28	9.46479e-007	2988.28	8.53072e-007
		2988.28	8.53072e-007	2988.28	8.53072e-007
				2988.28	8.53072e-007
				2989.75	1.47525e-006
				2989.75	1.47525e-006
				2989.75	1.47525e-006
				2991.21	6.29318e-007
				2991.21	6.29318e-007
				2991.21	6.29318e-007
				2992.68	1.67032e-006
				2992.68	1.67032e-006
				2992.68	1.67032e-006
				2994.14	1.44e-006
				2994.14	1.44e-006
				2994.14	1.44e-006
				2995.61	1.03548e-006
				2995.61	1.03548e-006
				2995.61	1.03548e-006
				2997.07	7.33938e-007
				2997.07	7.33938e-007
				2997.07	7.33938e-007
				2998.54	1.48096e-006
				2998.54	1.48096e-006
				2998.54	1.48096e-006
