"Spectrum I(f) of current at speaker terminals"					
"Signal lines"		"Noise + Distortions"		"Noise floor"	
"Frequency [Hz]"	"[dB]   0 dB = 1 A"	"Frequency [Hz]"	"[dB]   0 dB = 1 A"	"Frequency [Hz]"	"[dB]   0 dB = 1 A"
1.46484	-54.1409			1.46484	-96.2469
1.46484	-96.2469			1.46484	-96.2469
				1.46484	-96.2469
2.92969	-54.323			2.92969	-99.9849
2.92969	-99.9849			2.92969	-99.9849
				2.92969	-99.9849
4.39453	-56.7466			4.39453	-102.812
4.39453	-102.812			4.39453	-102.812
				4.39453	-102.812
5.85938	-56.2197			5.85938	-101.552
5.85938	-101.552			5.85938	-101.552
				5.85938	-101.552
7.32422	-55.9533			7.32422	-109.087
7.32422	-109.087			7.32422	-109.087
				7.32422	-109.087
8.78906	-55.9586			8.78906	-106.075
8.78906	-106.075			8.78906	-106.075
				8.78906	-106.075
10.2539	-56.0438			10.2539	-106.237
10.2539	-106.237			10.2539	-106.237
				10.2539	-106.237
11.7188	-56.2748			11.7188	-111.558
11.7188	-111.558			11.7188	-111.558
				11.7188	-111.558
13.1836	-56.449			13.1836	-104.871
13.1836	-104.871			13.1836	-104.871
				13.1836	-104.871
14.6484	-56.7585			14.6484	-108.493
14.6484	-108.493			14.6484	-108.493
				14.6484	-108.493
16.1133	-57.0528			16.1133	-114.232
16.1133	-114.232			16.1133	-114.232
				16.1133	-114.232
17.5781	-57.42			17.5781	-107.376
17.5781	-107.376			17.5781	-107.376
				17.5781	-107.376
19.043	-57.6705			19.043	-118.688
19.043	-118.688			19.043	-118.688
				19.043	-118.688
20.5078	-58.1169			20.5078	-121.739
20.5078	-121.739			20.5078	-121.739
				20.5078	-121.739
21.9727	-58.6549			21.9727	-114.697
21.9727	-114.697			21.9727	-114.697
				21.9727	-114.697
23.4375	-59.1842			23.4375	-109.815
23.4375	-109.815			23.4375	-109.815
				23.4375	-109.815
24.9023	-59.4507			24.9023	-111.667
24.9023	-111.667			24.9023	-111.667
				24.9023	-111.667
26.3672	-60.1784			26.3672	-109.716
26.3672	-109.716			26.3672	-109.716
				26.3672	-109.716
27.832	-60.6428			27.832	-110.513
27.832	-110.513			27.832	-110.513
				27.832	-110.513
29.2969	-61.0964			29.2969	-109.131
29.2969	-109.131			29.2969	-109.131
				29.2969	-109.131
30.7617	-61.8049			30.7617	-112.965
30.7617	-112.965			30.7617	-112.965
				30.7617	-112.965
32.2266	-62.2776			32.2266	-116.852
32.2266	-116.852			32.2266	-116.852
				32.2266	-116.852
33.6914	-63.1177			33.6914	-124.042
33.6914	-124.042			33.6914	-124.042
				33.6914	-124.042
35.1563	-63.6437			35.1563	-108.748
35.1563	-108.748			35.1563	-108.748
				35.1563	-108.748
36.6211	-64.258			36.6211	-111.847
36.6211	-111.847			36.6211	-111.847
				36.6211	-111.847
38.0859	-65.29			38.0859	-107.465
38.0859	-107.465			38.0859	-107.465
				38.0859	-107.465
39.5508	-66.1634			39.5508	-120.37
39.5508	-120.37			39.5508	-120.37
				39.5508	-120.37
41.0156	-66.787			41.0156	-112.94
41.0156	-112.94			41.0156	-112.94
				41.0156	-112.94
42.4805	-67.2669			42.4805	-107.26
42.4805	-107.26			42.4805	-107.26
				42.4805	-107.26
43.9453	-68.2542			43.9453	-111.559
43.9453	-111.559			43.9453	-111.559
				43.9453	-111.559
45.4102	-68.8382			45.4102	-109.151
45.4102	-109.151			45.4102	-109.151
				45.4102	-109.151
46.875	-69.3552			46.875	-110.188
46.875	-110.188			46.875	-110.188
				46.875	-110.188
48.3398	-69.614			48.3398	-110.507
48.3398	-110.507			48.3398	-110.507
				48.3398	-110.507
49.8047	-68.8405			49.8047	-115.435
49.8047	-115.435			49.8047	-115.435
				49.8047	-115.435
51.2695	-68.8691			51.2695	-104.291
51.2695	-104.291			51.2695	-104.291
				51.2695	-104.291
52.7344	-68.495			52.7344	-116.344
52.7344	-116.344			52.7344	-116.344
				52.7344	-116.344
54.1992	-67.9028			54.1992	-111.309
54.1992	-111.309			54.1992	-111.309
				54.1992	-111.309
55.6641	-67.5254			55.6641	-116.583
55.6641	-116.583			55.6641	-116.583
				55.6641	-116.583
57.1289	-66.905			57.1289	-109.242
57.1289	-109.242			57.1289	-109.242
				57.1289	-109.242
58.5938	-66.4036			58.5938	-109.831
58.5938	-109.831			58.5938	-109.831
				58.5938	-109.831
60.0586	-65.6368			60.0586	-116.278
60.0586	-116.278			60.0586	-116.278
				60.0586	-116.278
61.5234	-65.0294			61.5234	-108.373
61.5234	-108.373			61.5234	-108.373
				61.5234	-108.373
		62.9883	-96.2614	62.9883	-121.471
		62.9883	-121.471	62.9883	-121.471
				62.9883	-121.471
64.4531	-64.1907			64.4531	-107.589
64.4531	-107.589			64.4531	-107.589
				64.4531	-107.589
65.918	-63.5596			65.918	-107.15
65.918	-107.15			65.918	-107.15
				65.918	-107.15
67.3828	-63.2427			67.3828	-114.228
67.3828	-114.228			67.3828	-114.228
				67.3828	-114.228
		68.8477	-96.3871	68.8477	-113.99
		68.8477	-113.99	68.8477	-113.99
				68.8477	-113.99
70.3125	-62.3659			70.3125	-115.058
70.3125	-115.058			70.3125	-115.058
				70.3125	-115.058
71.7773	-61.9398			71.7773	-111.508
71.7773	-111.508			71.7773	-111.508
				71.7773	-111.508
73.2422	-61.7015			73.2422	-120.022
73.2422	-120.022			73.2422	-120.022
				73.2422	-120.022
		74.707	-102.455	74.707	-112.564
		74.707	-112.564	74.707	-112.564
				74.707	-112.564
76.1719	-61.0621			76.1719	-108.735
76.1719	-108.735			76.1719	-108.735
				76.1719	-108.735
77.6367	-60.7785			77.6367	-114.526
77.6367	-114.526			77.6367	-114.526
				77.6367	-114.526
		79.1016	-99.431	79.1016	-116.057
		79.1016	-116.057	79.1016	-116.057
				79.1016	-116.057
80.5664	-60.493			80.5664	-130.478
80.5664	-130.478			80.5664	-130.478
				80.5664	-130.478
		82.0313	-105.829	82.0313	-108.439
		82.0313	-108.439	82.0313	-108.439
				82.0313	-108.439
83.4961	-59.9164			83.4961	-112.638
83.4961	-112.638			83.4961	-112.638
				83.4961	-112.638
84.9609	-59.6352			84.9609	-110.199
84.9609	-110.199			84.9609	-110.199
				84.9609	-110.199
		86.4258	-100.969	86.4258	-104.899
		86.4258	-104.899	86.4258	-104.899
				86.4258	-104.899
87.8906	-59.2729			87.8906	-119.717
87.8906	-119.717			87.8906	-119.717
				87.8906	-119.717
				89.3555	-108.522
				89.3555	-108.522
				89.3555	-108.522
90.8203	-58.8209			90.8203	-111.036
90.8203	-111.036			90.8203	-111.036
				90.8203	-111.036
92.2852	-58.7028			92.2852	-111.359
92.2852	-111.359			92.2852	-111.359
				92.2852	-111.359
		93.75	-101.374	93.75	-115.857
		93.75	-115.857	93.75	-115.857
				93.75	-115.857
95.2148	-58.4178			95.2148	-117.759
95.2148	-117.759			95.2148	-117.759
				95.2148	-117.759
		96.6797	-108.493	96.6797	-123.409
		96.6797	-123.409	96.6797	-123.409
				96.6797	-123.409
98.1445	-58.2034			98.1445	-110.614
98.1445	-110.614			98.1445	-110.614
				98.1445	-110.614
				99.6094	-108.632
				99.6094	-108.632
				99.6094	-108.632
101.074	-57.8921			101.074	-110.17
101.074	-110.17			101.074	-110.17
				101.074	-110.17
		102.539	-103.707	102.539	-109.247
		102.539	-109.247	102.539	-109.247
				102.539	-109.247
104.004	-57.6592			104.004	-110.264
104.004	-110.264			104.004	-110.264
				104.004	-110.264
		105.469	-97.0075	105.469	-115.588
		105.469	-115.588	105.469	-115.588
				105.469	-115.588
106.934	-57.5126			106.934	-112.614
106.934	-112.614			106.934	-112.614
				106.934	-112.614
		108.398	-118.564	108.398	-121.007
		108.398	-121.007	108.398	-121.007
				108.398	-121.007
		109.863	-101.389	109.863	-107.986
		109.863	-107.986	109.863	-107.986
				109.863	-107.986
111.328	-57.1525			111.328	-108.521
111.328	-108.521			111.328	-108.521
				111.328	-108.521
				112.793	-114.229
				112.793	-114.229
				112.793	-114.229
114.258	-57.0038			114.258	-123.961
114.258	-123.961			114.258	-123.961
				114.258	-123.961
		115.723	-105.419	115.723	-111.399
		115.723	-111.399	115.723	-111.399
				115.723	-111.399
117.188	-56.8523			117.188	-116.867
117.188	-116.867			117.188	-116.867
				117.188	-116.867
		118.652	-98.7411	118.652	-111.709
		118.652	-111.709	118.652	-111.709
				118.652	-111.709
120.117	-56.7115			120.117	-106.163
120.117	-106.163			120.117	-106.163
				120.117	-106.163
				121.582	-114.861
				121.582	-114.861
				121.582	-114.861
		123.047	-104.426	123.047	-115.192
		123.047	-115.192	123.047	-115.192
				123.047	-115.192
124.512	-56.5676			124.512	-107.105
124.512	-107.105			124.512	-107.105
				124.512	-107.105
		125.977	-106.188	125.977	-110.264
		125.977	-110.264	125.977	-110.264
				125.977	-110.264
127.441	-56.4627			127.441	-112.705
127.441	-112.705			127.441	-112.705
				127.441	-112.705
				128.906	-107.023
				128.906	-107.023
				128.906	-107.023
		130.371	-102.547	130.371	-103.952
		130.371	-103.952	130.371	-103.952
				130.371	-103.952
131.836	-56.3487			131.836	-110.891
131.836	-110.891			131.836	-110.891
				131.836	-110.891
		133.301	-104.482	133.301	-111.01
		133.301	-111.01	133.301	-111.01
				133.301	-111.01
134.766	-56.1954			134.766	-111.625
134.766	-111.625			134.766	-111.625
				134.766	-111.625
		136.23	-96.722	136.23	-111.981
		136.23	-111.981	136.23	-111.981
				136.23	-111.981
		137.695	-97.2466	137.695	-116.281
		137.695	-116.281	137.695	-116.281
				137.695	-116.281
139.16	-56.0384			139.16	-109.286
139.16	-109.286			139.16	-109.286
				139.16	-109.286
		140.625	-98.2801	140.625	-114.908
		140.625	-114.908	140.625	-114.908
				140.625	-114.908
		142.09	-97.838	142.09	-110.868
		142.09	-110.868	142.09	-110.868
				142.09	-110.868
143.555	-55.9595			143.555	-115.332
143.555	-115.332			143.555	-115.332
				143.555	-115.332
		145.02	-98.8086	145.02	-108.927
		145.02	-108.927	145.02	-108.927
				145.02	-108.927
		146.484	-101.981	146.484	-123.001
		146.484	-123.001	146.484	-123.001
				146.484	-123.001
147.949	-55.7975			147.949	-109.562
147.949	-109.562			147.949	-109.562
				147.949	-109.562
		149.414	-101.052	149.414	-111.299
		149.414	-111.299	149.414	-111.299
				149.414	-111.299
				150.879	-102.633
				150.879	-102.633
				150.879	-102.633
152.344	-55.712			152.344	-110.793
152.344	-110.793			152.344	-110.793
				152.344	-110.793
		153.809	-104.608	153.809	-124.611
		153.809	-124.611	153.809	-124.611
				153.809	-124.611
		155.273	-107.869	155.273	-113.297
		155.273	-113.297	155.273	-113.297
				155.273	-113.297
156.738	-55.6406			156.738	-117.281
156.738	-117.281			156.738	-117.281
				156.738	-117.281
				158.203	-108.736
				158.203	-108.736
				158.203	-108.736
		159.668	-103.032	159.668	-116.757
		159.668	-116.757	159.668	-116.757
				159.668	-116.757
161.133	-55.5882			161.133	-108.906
161.133	-108.906			161.133	-108.906
				161.133	-108.906
		162.598	-104.794	162.598	-107.278
		162.598	-107.278	162.598	-107.278
				162.598	-107.278
		164.063	-110.511	164.063	-117.344
		164.063	-117.344	164.063	-117.344
				164.063	-117.344
165.527	-55.5082			165.527	-116.052
165.527	-116.052			165.527	-116.052
				165.527	-116.052
		166.992	-109.063	166.992	-119.413
		166.992	-119.413	166.992	-119.413
				166.992	-119.413
		168.457	-99.6549	168.457	-121.346
		168.457	-121.346	168.457	-121.346
				168.457	-121.346
169.922	-55.4619			169.922	-124.424
169.922	-124.424			169.922	-124.424
				169.922	-124.424
		171.387	-101.84	171.387	-112.916
		171.387	-112.916	171.387	-112.916
				171.387	-112.916
				172.852	-109.474
				172.852	-109.474
				172.852	-109.474
		174.316	-102.273	174.316	-107.745
		174.316	-107.745	174.316	-107.745
				174.316	-107.745
175.781	-55.4056			175.781	-115.297
175.781	-115.297			175.781	-115.297
				175.781	-115.297
				177.246	-111.947
				177.246	-111.947
				177.246	-111.947
		178.711	-105.098	178.711	-117.064
		178.711	-117.064	178.711	-117.064
				178.711	-117.064
180.176	-55.3461			180.176	-109.253
180.176	-109.253			180.176	-109.253
				180.176	-109.253
		181.641	-108.912	181.641	-110.834
		181.641	-110.834	181.641	-110.834
				181.641	-110.834
				183.105	-110.797
				183.105	-110.797
				183.105	-110.797
		184.57	-110.589	184.57	-126.075
		184.57	-126.075	184.57	-126.075
				184.57	-126.075
186.035	-55.2836			186.035	-138.934
186.035	-138.934			186.035	-138.934
				186.035	-138.934
		187.5	-102.011	187.5	-118.612
		187.5	-118.612	187.5	-118.612
				187.5	-118.612
		188.965	-102.762	188.965	-111.059
		188.965	-111.059	188.965	-111.059
				188.965	-111.059
		190.43	-102.537	190.43	-113.028
		190.43	-113.028	190.43	-113.028
				190.43	-113.028
191.895	-55.2346			191.895	-109.941
191.895	-109.941			191.895	-109.941
				191.895	-109.941
		193.359	-101.748	193.359	-110.365
		193.359	-110.365	193.359	-110.365
				193.359	-110.365
		194.824	-100.8	194.824	-110.814
		194.824	-110.814	194.824	-110.814
				194.824	-110.814
		196.289	-101.762	196.289	-108.501
		196.289	-108.501	196.289	-108.501
				196.289	-108.501
197.754	-55.2114			197.754	-120.104
197.754	-120.104			197.754	-120.104
				197.754	-120.104
				199.219	-114.523
				199.219	-114.523
				199.219	-114.523
		200.684	-98.7269	200.684	-120.068
		200.684	-120.068	200.684	-120.068
				200.684	-120.068
202.148	-55.2027			202.148	-114.708
202.148	-114.708			202.148	-114.708
				202.148	-114.708
		203.613	-100.84	203.613	-108.769
		203.613	-108.769	203.613	-108.769
				203.613	-108.769
		205.078	-101.247	205.078	-113.654
		205.078	-113.654	205.078	-113.654
				205.078	-113.654
		206.543	-106.723	206.543	-113.636
		206.543	-113.636	206.543	-113.636
				206.543	-113.636
		208.008	-95.3587	208.008	-108.741
		208.008	-108.741	208.008	-108.741
				208.008	-108.741
209.473	-55.1239			209.473	-122.369
209.473	-122.369			209.473	-122.369
				209.473	-122.369
		210.938	-101.183	210.938	-108.986
		210.938	-108.986	210.938	-108.986
				210.938	-108.986
				212.402	-109.778
				212.402	-109.778
				212.402	-109.778
		213.867	-99.6948	213.867	-112.912
		213.867	-112.912	213.867	-112.912
				213.867	-112.912
215.332	-55.0814			215.332	-117.234
215.332	-117.234			215.332	-117.234
				215.332	-117.234
		216.797	-102.138	216.797	-106.114
		216.797	-106.114	216.797	-106.114
				216.797	-106.114
		218.262	-100.341	218.262	-112.883
		218.262	-112.883	218.262	-112.883
				218.262	-112.883
		219.727	-104.624	219.727	-110.506
		219.727	-110.506	219.727	-110.506
				219.727	-110.506
221.191	-55.0737			221.191	-118.795
221.191	-118.795			221.191	-118.795
				221.191	-118.795
				222.656	-110.354
				222.656	-110.354
				222.656	-110.354
		224.121	-101.753	224.121	-118.473
		224.121	-118.473	224.121	-118.473
				224.121	-118.473
		225.586	-102.262	225.586	-106.021
		225.586	-106.021	225.586	-106.021
				225.586	-106.021
227.051	-55.1124			227.051	-118.172
227.051	-118.172			227.051	-118.172
				227.051	-118.172
		228.516	-98.6794	228.516	-107.376
		228.516	-107.376	228.516	-107.376
				228.516	-107.376
		229.98	-109.064	229.98	-117.919
		229.98	-117.919	229.98	-117.919
				229.98	-117.919
		231.445	-106.925	231.445	-121.113
		231.445	-121.113	231.445	-121.113
				231.445	-121.113
		232.91	-98.7963	232.91	-136.396
		232.91	-136.396	232.91	-136.396
				232.91	-136.396
234.375	-55.0569			234.375	-115.303
234.375	-115.303			234.375	-115.303
				234.375	-115.303
		235.84	-101.243	235.84	-123.114
		235.84	-123.114	235.84	-123.114
				235.84	-123.114
		237.305	-102.942	237.305	-114.856
		237.305	-114.856	237.305	-114.856
				237.305	-114.856
				238.77	-117.232
				238.77	-117.232
				238.77	-117.232
		240.234	-102.318	240.234	-121.008
		240.234	-121.008	240.234	-121.008
				240.234	-121.008
241.699	-55.0614			241.699	-118.169
241.699	-118.169			241.699	-118.169
				241.699	-118.169
		243.164	-102.78	243.164	-109.513
		243.164	-109.513	243.164	-109.513
				243.164	-109.513
		244.629	-106.216	244.629	-117.056
		244.629	-117.056	244.629	-117.056
				244.629	-117.056
		246.094	-97.871	246.094	-108.726
		246.094	-108.726	246.094	-108.726
				246.094	-108.726
		247.559	-102.945	247.559	-114.207
		247.559	-114.207	247.559	-114.207
				247.559	-114.207
249.023	-55.0527			249.023	-111.978
249.023	-111.978			249.023	-111.978
				249.023	-111.978
		250.488	-102.007	250.488	-111.423
		250.488	-111.423	250.488	-111.423
				250.488	-111.423
		251.953	-105.162	251.953	-114.903
		251.953	-114.903	251.953	-114.903
				251.953	-114.903
		253.418	-99.024	253.418	-124.094
		253.418	-124.094	253.418	-124.094
				253.418	-124.094
254.883	-55.1108			254.883	-115.277
254.883	-115.277			254.883	-115.277
				254.883	-115.277
		256.348	-99.5976	256.348	-109.57
		256.348	-109.57	256.348	-109.57
				256.348	-109.57
				257.813	-112.391
				257.813	-112.391
				257.813	-112.391
		259.277	-101.69	259.277	-112.344
		259.277	-112.344	259.277	-112.344
				259.277	-112.344
		260.742	-106.499	260.742	-116.895
		260.742	-116.895	260.742	-116.895
				260.742	-116.895
		262.207	-107.539	262.207	-111.746
		262.207	-111.746	262.207	-111.746
				262.207	-111.746
263.672	-55.0781			263.672	-129.817
263.672	-129.817			263.672	-129.817
				263.672	-129.817
		265.137	-110.167	265.137	-113.41
		265.137	-113.41	265.137	-113.41
				265.137	-113.41
		266.602	-107.184	266.602	-111.148
		266.602	-111.148	266.602	-111.148
				266.602	-111.148
		268.066	-108.926	268.066	-110.982
		268.066	-110.982	268.066	-110.982
				268.066	-110.982
		269.531	-99.121	269.531	-118.935
		269.531	-118.935	269.531	-118.935
				269.531	-118.935
270.996	-55.1929			270.996	-116.807
270.996	-116.807			270.996	-116.807
				270.996	-116.807
				272.461	-107.251
				272.461	-107.251
				272.461	-107.251
		273.926	-98.5494	273.926	-109.276
		273.926	-109.276	273.926	-109.276
				273.926	-109.276
		275.391	-114.229	275.391	-117.927
		275.391	-117.927	275.391	-117.927
				275.391	-117.927
				276.855	-115.429
				276.855	-115.429
				276.855	-115.429
278.32	-55.1392			278.32	-120.203
278.32	-120.203			278.32	-120.203
				278.32	-120.203
				279.785	-105.956
				279.785	-105.956
				279.785	-105.956
		281.25	-101.314	281.25	-110.838
		281.25	-110.838	281.25	-110.838
				281.25	-110.838
		282.715	-100.519	282.715	-116.489
		282.715	-116.489	282.715	-116.489
				282.715	-116.489
		284.18	-124.07	284.18	-128.328
		284.18	-128.328	284.18	-128.328
				284.18	-128.328
		285.645	-111.647	285.645	-118.507
		285.645	-118.507	285.645	-118.507
				285.645	-118.507
287.109	-55.1174			287.109	-114.036
287.109	-114.036			287.109	-114.036
				287.109	-114.036
		288.574	-99.9023	288.574	-118.194
		288.574	-118.194	288.574	-118.194
				288.574	-118.194
		290.039	-103.227	290.039	-110.886
		290.039	-110.886	290.039	-110.886
				290.039	-110.886
		291.504	-101.687	291.504	-111.68
		291.504	-111.68	291.504	-111.68
				291.504	-111.68
		292.969	-106.586	292.969	-120.661
		292.969	-120.661	292.969	-120.661
				292.969	-120.661
		294.434	-103.57	294.434	-129.983
		294.434	-129.983	294.434	-129.983
				294.434	-129.983
295.898	-55.0966			295.898	-113.017
295.898	-113.017			295.898	-113.017
				295.898	-113.017
		297.363	-109.897	297.363	-112.53
		297.363	-112.53	297.363	-112.53
				297.363	-112.53
		298.828	-99.1067	298.828	-108.109
		298.828	-108.109	298.828	-108.109
				298.828	-108.109
		300.293	-103.07	300.293	-108.22
		300.293	-108.22	300.293	-108.22
				300.293	-108.22
		301.758	-102.331	301.758	-109.68
		301.758	-109.68	301.758	-109.68
				301.758	-109.68
303.223	-55.0439			303.223	-117.126
303.223	-117.126			303.223	-117.126
				303.223	-117.126
		304.688	-109.87	304.688	-115.989
		304.688	-115.989	304.688	-115.989
				304.688	-115.989
		306.152	-98.6263	306.152	-114.577
		306.152	-114.577	306.152	-114.577
				306.152	-114.577
		307.617	-102.259	307.617	-112.551
		307.617	-112.551	307.617	-112.551
				307.617	-112.551
		309.082	-120.482	309.082	-123.636
		309.082	-123.636	309.082	-123.636
				309.082	-123.636
		310.547	-105.381	310.547	-117.032
		310.547	-117.032	310.547	-117.032
				310.547	-117.032
		312.012	-95.6301	312.012	-119.278
		312.012	-119.278	312.012	-119.278
				312.012	-119.278
313.477	-55.0843			313.477	-110.676
313.477	-110.676			313.477	-110.676
				313.477	-110.676
				314.941	-107.337
				314.941	-107.337
				314.941	-107.337
		316.406	-99.8645	316.406	-116.408
		316.406	-116.408	316.406	-116.408
				316.406	-116.408
				317.871	-112.542
				317.871	-112.542
				317.871	-112.542
				319.336	-107.604
				319.336	-107.604
				319.336	-107.604
		320.801	-99.6154	320.801	-117.316
		320.801	-117.316	320.801	-117.316
				320.801	-117.316
322.266	-55.1007			322.266	-113.51
322.266	-113.51			322.266	-113.51
				322.266	-113.51
		323.73	-99.3864	323.73	-111.814
		323.73	-111.814	323.73	-111.814
				323.73	-111.814
		325.195	-102.329	325.195	-116.42
		325.195	-116.42	325.195	-116.42
				325.195	-116.42
		326.66	-106.817	326.66	-120.612
		326.66	-120.612	326.66	-120.612
				326.66	-120.612
		328.125	-98.6259	328.125	-121.026
		328.125	-121.026	328.125	-121.026
				328.125	-121.026
		329.59	-100.083	329.59	-121.966
		329.59	-121.966	329.59	-121.966
				329.59	-121.966
331.055	-55.1022			331.055	-111.783
331.055	-111.783			331.055	-111.783
				331.055	-111.783
		332.52	-104.513	332.52	-119.341
		332.52	-119.341	332.52	-119.341
				332.52	-119.341
		333.984	-104.857	333.984	-115.198
		333.984	-115.198	333.984	-115.198
				333.984	-115.198
		335.449	-107.066	335.449	-114.46
		335.449	-114.46	335.449	-114.46
				335.449	-114.46
		336.914	-100.064	336.914	-110.136
		336.914	-110.136	336.914	-110.136
				336.914	-110.136
		338.379	-109.53	338.379	-114.026
		338.379	-114.026	338.379	-114.026
				338.379	-114.026
		339.844	-101.938	339.844	-113.224
		339.844	-113.224	339.844	-113.224
				339.844	-113.224
341.309	-55.1233			341.309	-123.503
341.309	-123.503			341.309	-123.503
				341.309	-123.503
		342.773	-104.372	342.773	-111.358
		342.773	-111.358	342.773	-111.358
				342.773	-111.358
		344.238	-103.229	344.238	-111.716
		344.238	-111.716	344.238	-111.716
				344.238	-111.716
		345.703	-100.927	345.703	-119.946
		345.703	-119.946	345.703	-119.946
				345.703	-119.946
				347.168	-112.703
				347.168	-112.703
				347.168	-112.703
		348.633	-103.459	348.633	-123.949
		348.633	-123.949	348.633	-123.949
				348.633	-123.949
		350.098	-100.799	350.098	-115.695
		350.098	-115.695	350.098	-115.695
				350.098	-115.695
351.563	-55.1367			351.563	-107.189
351.563	-107.189			351.563	-107.189
				351.563	-107.189
				353.027	-108.178
				353.027	-108.178
				353.027	-108.178
		354.492	-108.26	354.492	-118.941
		354.492	-118.941	354.492	-118.941
				354.492	-118.941
		355.957	-104.026	355.957	-117.948
		355.957	-117.948	355.957	-117.948
				355.957	-117.948
		357.422	-99.2937	357.422	-113.984
		357.422	-113.984	357.422	-113.984
				357.422	-113.984
		358.887	-98.9929	358.887	-113.138
		358.887	-113.138	358.887	-113.138
				358.887	-113.138
		360.352	-105.629	360.352	-111.191
		360.352	-111.191	360.352	-111.191
				360.352	-111.191
361.816	-55.1673			361.816	-118.339
361.816	-118.339			361.816	-118.339
				361.816	-118.339
		363.281	-100.29	363.281	-110.218
		363.281	-110.218	363.281	-110.218
				363.281	-110.218
		364.746	-111.731	364.746	-118.718
		364.746	-118.718	364.746	-118.718
				364.746	-118.718
		366.211	-102.674	366.211	-111.663
		366.211	-111.663	366.211	-111.663
				366.211	-111.663
		367.676	-105.518	367.676	-113.661
		367.676	-113.661	367.676	-113.661
				367.676	-113.661
		369.141	-100.963	369.141	-116.147
		369.141	-116.147	369.141	-116.147
				369.141	-116.147
		370.605	-105.615	370.605	-111.289
		370.605	-111.289	370.605	-111.289
				370.605	-111.289
372.07	-55.1714			372.07	-111.994
372.07	-111.994			372.07	-111.994
				372.07	-111.994
		373.535	-106.495	373.535	-108.995
		373.535	-108.995	373.535	-108.995
				373.535	-108.995
		375	-98.4412	375	-111.571
		375	-111.571	375	-111.571
				375	-111.571
		376.465	-96.6274	376.465	-117.776
		376.465	-117.776	376.465	-117.776
				376.465	-117.776
		377.93	-109.502	377.93	-115.195
		377.93	-115.195	377.93	-115.195
				377.93	-115.195
		379.395	-104.096	379.395	-126.144
		379.395	-126.144	379.395	-126.144
				379.395	-126.144
		380.859	-107.741	380.859	-112.557
		380.859	-112.557	380.859	-112.557
				380.859	-112.557
382.324	-55.2541			382.324	-111.315
382.324	-111.315			382.324	-111.315
				382.324	-111.315
		383.789	-102.156	383.789	-111.338
		383.789	-111.338	383.789	-111.338
				383.789	-111.338
		385.254	-106.011	385.254	-113.492
		385.254	-113.492	385.254	-113.492
				385.254	-113.492
		386.719	-106.435	386.719	-122.469
		386.719	-122.469	386.719	-122.469
				386.719	-122.469
		388.184	-102.988	388.184	-116.249
		388.184	-116.249	388.184	-116.249
				388.184	-116.249
		389.648	-108.837	389.648	-122.222
		389.648	-122.222	389.648	-122.222
				389.648	-122.222
		391.113	-98.3488	391.113	-115.146
		391.113	-115.146	391.113	-115.146
				391.113	-115.146
		392.578	-103.197	392.578	-116.693
		392.578	-116.693	392.578	-116.693
				392.578	-116.693
394.043	-55.2355			394.043	-111.782
394.043	-111.782			394.043	-111.782
				394.043	-111.782
		395.508	-104.964	395.508	-121.478
		395.508	-121.478	395.508	-121.478
				395.508	-121.478
		396.973	-96.8546	396.973	-110.639
		396.973	-110.639	396.973	-110.639
				396.973	-110.639
		398.438	-99.275	398.438	-111.468
		398.438	-111.468	398.438	-111.468
				398.438	-111.468
		399.902	-100.373	399.902	-110.266
		399.902	-110.266	399.902	-110.266
				399.902	-110.266
		401.367	-109.754	401.367	-113.061
		401.367	-113.061	401.367	-113.061
				401.367	-113.061
		402.832	-99.6781	402.832	-109.942
		402.832	-109.942	402.832	-109.942
				402.832	-109.942
		404.297	-97.4923	404.297	-117.327
		404.297	-117.327	404.297	-117.327
				404.297	-117.327
405.762	-55.3058			405.762	-111.023
405.762	-111.023			405.762	-111.023
				405.762	-111.023
		407.227	-107.209	407.227	-108.509
		407.227	-108.509	407.227	-108.509
				407.227	-108.509
		408.691	-110.496	408.691	-122.939
		408.691	-122.939	408.691	-122.939
				408.691	-122.939
		410.156	-100.088	410.156	-112.615
		410.156	-112.615	410.156	-112.615
				410.156	-112.615
		411.621	-97.973	411.621	-112.526
		411.621	-112.526	411.621	-112.526
				411.621	-112.526
		413.086	-106.636	413.086	-119.432
		413.086	-119.432	413.086	-119.432
				413.086	-119.432
				414.551	-110.206
				414.551	-110.206
				414.551	-110.206
		416.016	-103.02	416.016	-113.959
		416.016	-113.959	416.016	-113.959
				416.016	-113.959
417.48	-55.3273			417.48	-124.834
417.48	-124.834			417.48	-124.834
				417.48	-124.834
		418.945	-102.34	418.945	-114.606
		418.945	-114.606	418.945	-114.606
				418.945	-114.606
		420.41	-103.966	420.41	-117.776
		420.41	-117.776	420.41	-117.776
				420.41	-117.776
				421.875	-109.55
				421.875	-109.55
				421.875	-109.55
		423.34	-110.635	423.34	-124.211
		423.34	-124.211	423.34	-124.211
				423.34	-124.211
		424.805	-103.634	424.805	-107.353
		424.805	-107.353	424.805	-107.353
				424.805	-107.353
		426.27	-105.646	426.27	-114.652
		426.27	-114.652	426.27	-114.652
				426.27	-114.652
		427.734	-113.238	427.734	-117.753
		427.734	-117.753	427.734	-117.753
				427.734	-117.753
429.199	-55.3176			429.199	-112.939
429.199	-112.939			429.199	-112.939
				429.199	-112.939
		430.664	-102.746	430.664	-111.133
		430.664	-111.133	430.664	-111.133
				430.664	-111.133
				432.129	-109.266
				432.129	-109.266
				432.129	-109.266
		433.594	-97.9836	433.594	-115.233
		433.594	-115.233	433.594	-115.233
				433.594	-115.233
		435.059	-99.2396	435.059	-126.888
		435.059	-126.888	435.059	-126.888
				435.059	-126.888
				436.523	-109.154
				436.523	-109.154
				436.523	-109.154
		437.988	-102.347	437.988	-108.756
		437.988	-108.756	437.988	-108.756
				437.988	-108.756
		439.453	-104.544	439.453	-112.573
		439.453	-112.573	439.453	-112.573
				439.453	-112.573
		440.918	-105.563	440.918	-124.843
		440.918	-124.843	440.918	-124.843
				440.918	-124.843
442.383	-55.4144			442.383	-107.029
442.383	-107.029			442.383	-107.029
				442.383	-107.029
		443.848	-97.6757	443.848	-108.378
		443.848	-108.378	443.848	-108.378
				443.848	-108.378
		445.313	-101.109	445.313	-109.451
		445.313	-109.451	445.313	-109.451
				445.313	-109.451
		446.777	-103.625	446.777	-111.866
		446.777	-111.866	446.777	-111.866
				446.777	-111.866
		448.242	-98.4611	448.242	-108.017
		448.242	-108.017	448.242	-108.017
				448.242	-108.017
		449.707	-110.334	449.707	-118.144
		449.707	-118.144	449.707	-118.144
				449.707	-118.144
		451.172	-101.981	451.172	-121.462
		451.172	-121.462	451.172	-121.462
				451.172	-121.462
		452.637	-99.449	452.637	-113.335
		452.637	-113.335	452.637	-113.335
				452.637	-113.335
		454.102	-107.195	454.102	-112.122
		454.102	-112.122	454.102	-112.122
				454.102	-112.122
455.566	-55.4122			455.566	-112.127
455.566	-112.127			455.566	-112.127
				455.566	-112.127
		457.031	-104.558	457.031	-111.535
		457.031	-111.535	457.031	-111.535
				457.031	-111.535
		458.496	-112.305	458.496	-120.552
		458.496	-120.552	458.496	-120.552
				458.496	-120.552
		459.961	-104.435	459.961	-112.29
		459.961	-112.29	459.961	-112.29
				459.961	-112.29
		461.426	-104.31	461.426	-113.429
		461.426	-113.429	461.426	-113.429
				461.426	-113.429
		462.891	-99.225	462.891	-113.837
		462.891	-113.837	462.891	-113.837
				462.891	-113.837
		464.355	-100.14	464.355	-106.228
		464.355	-106.228	464.355	-106.228
				464.355	-106.228
		465.82	-104.637	465.82	-115.827
		465.82	-115.827	465.82	-115.827
				465.82	-115.827
		467.285	-106.174	467.285	-116.974
		467.285	-116.974	467.285	-116.974
				467.285	-116.974
468.75	-55.4303			468.75	-114.57
468.75	-114.57			468.75	-114.57
				468.75	-114.57
		470.215	-106.887	470.215	-112.071
		470.215	-112.071	470.215	-112.071
				470.215	-112.071
		471.68	-107.213	471.68	-114.259
		471.68	-114.259	471.68	-114.259
				471.68	-114.259
		473.145	-110.587	473.145	-113.329
		473.145	-113.329	473.145	-113.329
				473.145	-113.329
				474.609	-108.688
				474.609	-108.688
				474.609	-108.688
		476.074	-101.7	476.074	-119.14
		476.074	-119.14	476.074	-119.14
				476.074	-119.14
		477.539	-102.336	477.539	-109.987
		477.539	-109.987	477.539	-109.987
				477.539	-109.987
		479.004	-103.406	479.004	-112.201
		479.004	-112.201	479.004	-112.201
				479.004	-112.201
				480.469	-115.165
				480.469	-115.165
				480.469	-115.165
481.934	-55.4756			481.934	-116.988
481.934	-116.988			481.934	-116.988
				481.934	-116.988
		483.398	-104.684	483.398	-120.092
		483.398	-120.092	483.398	-120.092
				483.398	-120.092
		484.863	-100.709	484.863	-110.723
		484.863	-110.723	484.863	-110.723
				484.863	-110.723
		486.328	-110.52	486.328	-116.032
		486.328	-116.032	486.328	-116.032
				486.328	-116.032
		487.793	-103.808	487.793	-115.746
		487.793	-115.746	487.793	-115.746
				487.793	-115.746
		489.258	-100.597	489.258	-105.835
		489.258	-105.835	489.258	-105.835
				489.258	-105.835
		490.723	-108.576	490.723	-111.594
		490.723	-111.594	490.723	-111.594
				490.723	-111.594
		492.188	-100.189	492.188	-107.519
		492.188	-107.519	492.188	-107.519
				492.188	-107.519
		493.652	-110.114	493.652	-115.66
		493.652	-115.66	493.652	-115.66
				493.652	-115.66
		495.117	-114.24	495.117	-119.661
		495.117	-119.661	495.117	-119.661
				495.117	-119.661
496.582	-55.5582			496.582	-112.69
496.582	-112.69			496.582	-112.69
				496.582	-112.69
				498.047	-115.004
				498.047	-115.004
				498.047	-115.004
		499.512	-107.411	499.512	-118.957
		499.512	-118.957	499.512	-118.957
				499.512	-118.957
		500.977	-103.441	500.977	-109.537
		500.977	-109.537	500.977	-109.537
				500.977	-109.537
				502.441	-104.301
				502.441	-104.301
				502.441	-104.301
		503.906	-97.1845	503.906	-105.616
		503.906	-105.616	503.906	-105.616
				503.906	-105.616
				505.371	-115.372
				505.371	-115.372
				505.371	-115.372
		506.836	-110.823	506.836	-118.5
		506.836	-118.5	506.836	-118.5
				506.836	-118.5
		508.301	-103.836	508.301	-117.286
		508.301	-117.286	508.301	-117.286
				508.301	-117.286
		509.766	-107.26	509.766	-109.591
		509.766	-109.591	509.766	-109.591
				509.766	-109.591
511.23	-55.538			511.23	-109.706
511.23	-109.706			511.23	-109.706
				511.23	-109.706
		512.695	-110.552	512.695	-116.248
		512.695	-116.248	512.695	-116.248
				512.695	-116.248
		514.16	-110.084	514.16	-112.859
		514.16	-112.859	514.16	-112.859
				514.16	-112.859
		515.625	-104.239	515.625	-112.359
		515.625	-112.359	515.625	-112.359
				515.625	-112.359
				517.09	-114.981
				517.09	-114.981
				517.09	-114.981
		518.555	-101.859	518.555	-107.591
		518.555	-107.591	518.555	-107.591
				518.555	-107.591
		520.02	-107.305	520.02	-124.006
		520.02	-124.006	520.02	-124.006
				520.02	-124.006
		521.484	-108.194	521.484	-113.471
		521.484	-113.471	521.484	-113.471
				521.484	-113.471
				522.949	-113.446
				522.949	-113.446
				522.949	-113.446
		524.414	-98.0668	524.414	-110.465
		524.414	-110.465	524.414	-110.465
				524.414	-110.465
525.879	-55.5983			525.879	-106.159
525.879	-106.159			525.879	-106.159
				525.879	-106.159
		527.344	-103.791	527.344	-112.036
		527.344	-112.036	527.344	-112.036
				527.344	-112.036
		528.809	-101.502	528.809	-118.215
		528.809	-118.215	528.809	-118.215
				528.809	-118.215
				530.273	-115.04
				530.273	-115.04
				530.273	-115.04
				531.738	-111.569
				531.738	-111.569
				531.738	-111.569
		533.203	-99.7167	533.203	-111.955
		533.203	-111.955	533.203	-111.955
				533.203	-111.955
		534.668	-100.006	534.668	-110.456
		534.668	-110.456	534.668	-110.456
				534.668	-110.456
		536.133	-105.791	536.133	-120.219
		536.133	-120.219	536.133	-120.219
				536.133	-120.219
		537.598	-102.276	537.598	-111.404
		537.598	-111.404	537.598	-111.404
				537.598	-111.404
				539.063	-111.117
				539.063	-111.117
				539.063	-111.117
				540.527	-115.687
				540.527	-115.687
				540.527	-115.687
541.992	-55.6741			541.992	-124.607
541.992	-124.607			541.992	-124.607
				541.992	-124.607
		543.457	-105.284	543.457	-117.095
		543.457	-117.095	543.457	-117.095
				543.457	-117.095
		544.922	-106.58	544.922	-110.091
		544.922	-110.091	544.922	-110.091
				544.922	-110.091
		546.387	-103.404	546.387	-109.939
		546.387	-109.939	546.387	-109.939
				546.387	-109.939
		547.852	-104.537	547.852	-114.979
		547.852	-114.979	547.852	-114.979
				547.852	-114.979
		549.316	-111.617	549.316	-115.803
		549.316	-115.803	549.316	-115.803
				549.316	-115.803
		550.781	-106.832	550.781	-126.587
		550.781	-126.587	550.781	-126.587
				550.781	-126.587
		552.246	-106.82	552.246	-116.061
		552.246	-116.061	552.246	-116.061
				552.246	-116.061
		553.711	-106.154	553.711	-113.235
		553.711	-113.235	553.711	-113.235
				553.711	-113.235
		555.176	-105.949	555.176	-111.126
		555.176	-111.126	555.176	-111.126
				555.176	-111.126
		556.641	-103.65	556.641	-121.338
		556.641	-121.338	556.641	-121.338
				556.641	-121.338
558.105	-55.7499			558.105	-117.837
558.105	-117.837			558.105	-117.837
				558.105	-117.837
		559.57	-107.889	559.57	-121.452
		559.57	-121.452	559.57	-121.452
				559.57	-121.452
		561.035	-116.354	561.035	-117.467
		561.035	-117.467	561.035	-117.467
				561.035	-117.467
				562.5	-107.898
				562.5	-107.898
				562.5	-107.898
		563.965	-105.725	563.965	-113.827
		563.965	-113.827	563.965	-113.827
				563.965	-113.827
		565.43	-99.4619	565.43	-109.676
		565.43	-109.676	565.43	-109.676
				565.43	-109.676
		566.895	-108.017	566.895	-110.816
		566.895	-110.816	566.895	-110.816
				566.895	-110.816
		568.359	-103.596	568.359	-108.264
		568.359	-108.264	568.359	-108.264
				568.359	-108.264
		569.824	-108.22	569.824	-112.844
		569.824	-112.844	569.824	-112.844
				569.824	-112.844
		571.289	-104.629	571.289	-116.851
		571.289	-116.851	571.289	-116.851
				571.289	-116.851
		572.754	-103.722	572.754	-117.399
		572.754	-117.399	572.754	-117.399
				572.754	-117.399
574.219	-55.7848			574.219	-114.396
574.219	-114.396			574.219	-114.396
				574.219	-114.396
		575.684	-103.791	575.684	-109.455
		575.684	-109.455	575.684	-109.455
				575.684	-109.455
		577.148	-103.126	577.148	-113.177
		577.148	-113.177	577.148	-113.177
				577.148	-113.177
		578.613	-103.363	578.613	-118.653
		578.613	-118.653	578.613	-118.653
				578.613	-118.653
				580.078	-115.222
				580.078	-115.222
				580.078	-115.222
		581.543	-101.532	581.543	-115.938
		581.543	-115.938	581.543	-115.938
				581.543	-115.938
		583.008	-103.461	583.008	-118.639
		583.008	-118.639	583.008	-118.639
				583.008	-118.639
		584.473	-97.9137	584.473	-113.394
		584.473	-113.394	584.473	-113.394
				584.473	-113.394
				585.938	-111.705
				585.938	-111.705
				585.938	-111.705
		587.402	-103.192	587.402	-114.879
		587.402	-114.879	587.402	-114.879
				587.402	-114.879
		588.867	-102.5	588.867	-119.315
		588.867	-119.315	588.867	-119.315
				588.867	-119.315
590.332	-55.9144			590.332	-104.763
590.332	-104.763			590.332	-104.763
				590.332	-104.763
		591.797	-113.111	591.797	-115.84
		591.797	-115.84	591.797	-115.84
				591.797	-115.84
				593.262	-111.625
				593.262	-111.625
				593.262	-111.625
		594.727	-105.787	594.727	-109.442
		594.727	-109.442	594.727	-109.442
				594.727	-109.442
		596.191	-107.197	596.191	-109.794
		596.191	-109.794	596.191	-109.794
				596.191	-109.794
		597.656	-104.814	597.656	-121.647
		597.656	-121.647	597.656	-121.647
				597.656	-121.647
		599.121	-107.607	599.121	-121.434
		599.121	-121.434	599.121	-121.434
				599.121	-121.434
		600.586	-104.479	600.586	-123.817
		600.586	-123.817	600.586	-123.817
				600.586	-123.817
		602.051	-99.893	602.051	-113.1
		602.051	-113.1	602.051	-113.1
				602.051	-113.1
		603.516	-104.882	603.516	-118.314
		603.516	-118.314	603.516	-118.314
				603.516	-118.314
				604.98	-113.251
				604.98	-113.251
				604.98	-113.251
		606.445	-103.655	606.445	-115.357
		606.445	-115.357	606.445	-115.357
				606.445	-115.357
607.91	-55.8842			607.91	-111.729
607.91	-111.729			607.91	-111.729
				607.91	-111.729
		609.375	-98.771	609.375	-112.425
		609.375	-112.425	609.375	-112.425
				609.375	-112.425
		610.84	-104.6	610.84	-118.564
		610.84	-118.564	610.84	-118.564
				610.84	-118.564
		612.305	-99.032	612.305	-111.592
		612.305	-111.592	612.305	-111.592
				612.305	-111.592
		613.77	-105.423	613.77	-115.494
		613.77	-115.494	613.77	-115.494
				613.77	-115.494
		615.234	-109.619	615.234	-115.607
		615.234	-115.607	615.234	-115.607
				615.234	-115.607
		616.699	-101.884	616.699	-115.257
		616.699	-115.257	616.699	-115.257
				616.699	-115.257
		618.164	-109.27	618.164	-112.879
		618.164	-112.879	618.164	-112.879
				618.164	-112.879
				619.629	-104.18
				619.629	-104.18
				619.629	-104.18
		621.094	-103.954	621.094	-110.9
		621.094	-110.9	621.094	-110.9
				621.094	-110.9
		622.559	-101.832	622.559	-111.643
		622.559	-111.643	622.559	-111.643
				622.559	-111.643
		624.023	-105.71	624.023	-118.884
		624.023	-118.884	624.023	-118.884
				624.023	-118.884
625.488	-55.9607			625.488	-117.185
625.488	-117.185			625.488	-117.185
				625.488	-117.185
		626.953	-117.597	626.953	-123.652
		626.953	-123.652	626.953	-123.652
				626.953	-123.652
		628.418	-108.327	628.418	-114.897
		628.418	-114.897	628.418	-114.897
				628.418	-114.897
		629.883	-98.9516	629.883	-115.273
		629.883	-115.273	629.883	-115.273
				629.883	-115.273
		631.348	-102.314	631.348	-115.279
		631.348	-115.279	631.348	-115.279
				631.348	-115.279
		632.813	-101.262	632.813	-114.559
		632.813	-114.559	632.813	-114.559
				632.813	-114.559
		634.277	-103.475	634.277	-111.423
		634.277	-111.423	634.277	-111.423
				634.277	-111.423
		635.742	-101.08	635.742	-107.903
		635.742	-107.903	635.742	-107.903
				635.742	-107.903
		637.207	-110.661	637.207	-112.342
		637.207	-112.342	637.207	-112.342
				637.207	-112.342
		638.672	-106.508	638.672	-111.033
		638.672	-111.033	638.672	-111.033
				638.672	-111.033
		640.137	-103.732	640.137	-108.724
		640.137	-108.724	640.137	-108.724
				640.137	-108.724
		641.602	-107.226	641.602	-109.019
		641.602	-109.019	641.602	-109.019
				641.602	-109.019
		643.066	-104.234	643.066	-115.566
		643.066	-115.566	643.066	-115.566
				643.066	-115.566
644.531	-56.0282			644.531	-134.397
644.531	-134.397			644.531	-134.397
				644.531	-134.397
		645.996	-107.793	645.996	-118.134
		645.996	-118.134	645.996	-118.134
				645.996	-118.134
				647.461	-117.651
				647.461	-117.651
				647.461	-117.651
		648.926	-112.937	648.926	-122.088
		648.926	-122.088	648.926	-122.088
				648.926	-122.088
		650.391	-110.275	650.391	-113.945
		650.391	-113.945	650.391	-113.945
				650.391	-113.945
		651.855	-107.388	651.855	-112.594
		651.855	-112.594	651.855	-112.594
				651.855	-112.594
		653.32	-108.88	653.32	-110.161
		653.32	-110.161	653.32	-110.161
				653.32	-110.161
		654.785	-110.143	654.785	-116.654
		654.785	-116.654	654.785	-116.654
				654.785	-116.654
		656.25	-103.234	656.25	-113.861
		656.25	-113.861	656.25	-113.861
				656.25	-113.861
		657.715	-103.091	657.715	-111.462
		657.715	-111.462	657.715	-111.462
				657.715	-111.462
		659.18	-105.036	659.18	-110.138
		659.18	-110.138	659.18	-110.138
				659.18	-110.138
		660.645	-104.52	660.645	-112.981
		660.645	-112.981	660.645	-112.981
				660.645	-112.981
		662.109	-106.114	662.109	-112.471
		662.109	-112.471	662.109	-112.471
				662.109	-112.471
663.574	-56.16			663.574	-107.184
663.574	-107.184			663.574	-107.184
				663.574	-107.184
		665.039	-98.3183	665.039	-126.113
		665.039	-126.113	665.039	-126.113
				665.039	-126.113
		666.504	-106.865	666.504	-116.652
		666.504	-116.652	666.504	-116.652
				666.504	-116.652
		667.969	-112.395	667.969	-122.958
		667.969	-122.958	667.969	-122.958
				667.969	-122.958
		669.434	-103.503	669.434	-108.277
		669.434	-108.277	669.434	-108.277
				669.434	-108.277
				670.898	-112.94
				670.898	-112.94
				670.898	-112.94
		672.363	-106.485	672.363	-111.756
		672.363	-111.756	672.363	-111.756
				672.363	-111.756
				673.828	-106.658
				673.828	-106.658
				673.828	-106.658
		675.293	-104.069	675.293	-121.255
		675.293	-121.255	675.293	-121.255
				675.293	-121.255
		676.758	-104.236	676.758	-116.909
		676.758	-116.909	676.758	-116.909
				676.758	-116.909
		678.223	-112.233	678.223	-114.585
		678.223	-114.585	678.223	-114.585
				678.223	-114.585
				679.688	-108.044
				679.688	-108.044
				679.688	-108.044
				681.152	-107.529
				681.152	-107.529
				681.152	-107.529
682.617	-56.1936			682.617	-113.424
682.617	-113.424			682.617	-113.424
				682.617	-113.424
		684.082	-104.195	684.082	-109.545
		684.082	-109.545	684.082	-109.545
				684.082	-109.545
		685.547	-103.033	685.547	-113.26
		685.547	-113.26	685.547	-113.26
				685.547	-113.26
		687.012	-106.277	687.012	-107.752
		687.012	-107.752	687.012	-107.752
				687.012	-107.752
		688.477	-108.94	688.477	-117.876
		688.477	-117.876	688.477	-117.876
				688.477	-117.876
		689.941	-105.33	689.941	-118.879
		689.941	-118.879	689.941	-118.879
				689.941	-118.879
				691.406	-114.469
				691.406	-114.469
				691.406	-114.469
				692.871	-111.459
				692.871	-111.459
				692.871	-111.459
		694.336	-103.392	694.336	-120.24
		694.336	-120.24	694.336	-120.24
				694.336	-120.24
		695.801	-107.231	695.801	-119.275
		695.801	-119.275	695.801	-119.275
				695.801	-119.275
		697.266	-110.445	697.266	-118.423
		697.266	-118.423	697.266	-118.423
				697.266	-118.423
		698.73	-106.115	698.73	-108.967
		698.73	-108.967	698.73	-108.967
				698.73	-108.967
		700.195	-109.838	700.195	-118.632
		700.195	-118.632	700.195	-118.632
				700.195	-118.632
701.66	-56.241			701.66	-114.105
701.66	-114.105			701.66	-114.105
				701.66	-114.105
		703.125	-104.306	703.125	-108.546
		703.125	-108.546	703.125	-108.546
				703.125	-108.546
		704.59	-111.176	704.59	-114.691
		704.59	-114.691	704.59	-114.691
				704.59	-114.691
		706.055	-104.315	706.055	-113.725
		706.055	-113.725	706.055	-113.725
				706.055	-113.725
		707.52	-111.379	707.52	-122.054
		707.52	-122.054	707.52	-122.054
				707.52	-122.054
		708.984	-110.048	708.984	-114.097
		708.984	-114.097	708.984	-114.097
				708.984	-114.097
		710.449	-110.568	710.449	-120.631
		710.449	-120.631	710.449	-120.631
				710.449	-120.631
				711.914	-114.32
				711.914	-114.32
				711.914	-114.32
		713.379	-110.619	713.379	-111.961
		713.379	-111.961	713.379	-111.961
				713.379	-111.961
		714.844	-106.843	714.844	-110.173
		714.844	-110.173	714.844	-110.173
				714.844	-110.173
		716.309	-100.767	716.309	-114.926
		716.309	-114.926	716.309	-114.926
				716.309	-114.926
		717.773	-108.176	717.773	-114.39
		717.773	-114.39	717.773	-114.39
				717.773	-114.39
		719.238	-104.216	719.238	-110.482
		719.238	-110.482	719.238	-110.482
				719.238	-110.482
		720.703	-103.515	720.703	-116.122
		720.703	-116.122	720.703	-116.122
				720.703	-116.122
		722.168	-101.003	722.168	-114.272
		722.168	-114.272	722.168	-114.272
				722.168	-114.272
723.633	-56.348			723.633	-108.619
723.633	-108.619			723.633	-108.619
				723.633	-108.619
				725.098	-108.229
				725.098	-108.229
				725.098	-108.229
		726.563	-107.322	726.563	-113.694
		726.563	-113.694	726.563	-113.694
				726.563	-113.694
		728.027	-100.81	728.027	-113.539
		728.027	-113.539	728.027	-113.539
				728.027	-113.539
		729.492	-103.979	729.492	-109.706
		729.492	-109.706	729.492	-109.706
				729.492	-109.706
		730.957	-97.5169	730.957	-116.373
		730.957	-116.373	730.957	-116.373
				730.957	-116.373
		732.422	-119.607	732.422	-124.109
		732.422	-124.109	732.422	-124.109
				732.422	-124.109
		733.887	-114.564	733.887	-115.624
		733.887	-115.624	733.887	-115.624
				733.887	-115.624
		735.352	-103.073	735.352	-111.217
		735.352	-111.217	735.352	-111.217
				735.352	-111.217
		736.816	-104.487	736.816	-107.157
		736.816	-107.157	736.816	-107.157
				736.816	-107.157
		738.281	-102.903	738.281	-107.672
		738.281	-107.672	738.281	-107.672
				738.281	-107.672
		739.746	-112.4	739.746	-131.894
		739.746	-131.894	739.746	-131.894
				739.746	-131.894
		741.211	-114.018	741.211	-129.022
		741.211	-129.022	741.211	-129.022
				741.211	-129.022
		742.676	-103.593	742.676	-111.143
		742.676	-111.143	742.676	-111.143
				742.676	-111.143
744.141	-56.4076			744.141	-118.556
744.141	-118.556			744.141	-118.556
				744.141	-118.556
		745.605	-103.734	745.605	-122.456
		745.605	-122.456	745.605	-122.456
				745.605	-122.456
		747.07	-103.176	747.07	-111.304
		747.07	-111.304	747.07	-111.304
				747.07	-111.304
		748.535	-107.185	748.535	-113.859
		748.535	-113.859	748.535	-113.859
				748.535	-113.859
				750	-113.097
				750	-113.097
				750	-113.097
		751.465	-109.029	751.465	-117.481
		751.465	-117.481	751.465	-117.481
				751.465	-117.481
		752.93	-106.972	752.93	-113.629
		752.93	-113.629	752.93	-113.629
				752.93	-113.629
		754.395	-103.149	754.395	-111.753
		754.395	-111.753	754.395	-111.753
				754.395	-111.753
		755.859	-111.287	755.859	-117.415
		755.859	-117.415	755.859	-117.415
				755.859	-117.415
		757.324	-104.546	757.324	-107.053
		757.324	-107.053	757.324	-107.053
				757.324	-107.053
		758.789	-101.095	758.789	-115.341
		758.789	-115.341	758.789	-115.341
				758.789	-115.341
		760.254	-112.983	760.254	-116.857
		760.254	-116.857	760.254	-116.857
				760.254	-116.857
		761.719	-100.985	761.719	-110.374
		761.719	-110.374	761.719	-110.374
				761.719	-110.374
		763.184	-105.753	763.184	-117.888
		763.184	-117.888	763.184	-117.888
				763.184	-117.888
		764.648	-108.086	764.648	-119.509
		764.648	-119.509	764.648	-119.509
				764.648	-119.509
766.113	-56.5227			766.113	-107.483
766.113	-107.483			766.113	-107.483
				766.113	-107.483
		767.578	-104.098	767.578	-112.085
		767.578	-112.085	767.578	-112.085
				767.578	-112.085
		769.043	-107.055	769.043	-115.686
		769.043	-115.686	769.043	-115.686
				769.043	-115.686
		770.508	-104.49	770.508	-127.084
		770.508	-127.084	770.508	-127.084
				770.508	-127.084
		771.973	-106.904	771.973	-120.919
		771.973	-120.919	771.973	-120.919
				771.973	-120.919
		773.438	-106.169	773.438	-113.04
		773.438	-113.04	773.438	-113.04
				773.438	-113.04
		774.902	-98.0009	774.902	-119.585
		774.902	-119.585	774.902	-119.585
				774.902	-119.585
				776.367	-107.126
				776.367	-107.126
				776.367	-107.126
		777.832	-105.651	777.832	-116.563
		777.832	-116.563	777.832	-116.563
				777.832	-116.563
		779.297	-102.517	779.297	-107.495
		779.297	-107.495	779.297	-107.495
				779.297	-107.495
				780.762	-114.659
				780.762	-114.659
				780.762	-114.659
		782.227	-101.071	782.227	-117.797
		782.227	-117.797	782.227	-117.797
				782.227	-117.797
		783.691	-100.063	783.691	-115.168
		783.691	-115.168	783.691	-115.168
				783.691	-115.168
				785.156	-105.931
				785.156	-105.931
				785.156	-105.931
				786.621	-106.077
				786.621	-106.077
				786.621	-106.077
788.086	-56.6037			788.086	-113.504
788.086	-113.504			788.086	-113.504
				788.086	-113.504
		789.551	-108.406	789.551	-117.387
		789.551	-117.387	789.551	-117.387
				789.551	-117.387
		791.016	-111.019	791.016	-124.226
		791.016	-124.226	791.016	-124.226
				791.016	-124.226
		792.48	-111.084	792.48	-116.692
		792.48	-116.692	792.48	-116.692
				792.48	-116.692
				793.945	-107.317
				793.945	-107.317
				793.945	-107.317
		795.41	-105.783	795.41	-112.349
		795.41	-112.349	795.41	-112.349
				795.41	-112.349
		796.875	-107.632	796.875	-121.588
		796.875	-121.588	796.875	-121.588
				796.875	-121.588
		798.34	-103.918	798.34	-111.956
		798.34	-111.956	798.34	-111.956
				798.34	-111.956
		799.805	-111.081	799.805	-113.202
		799.805	-113.202	799.805	-113.202
				799.805	-113.202
		801.27	-110.622	801.27	-113.917
		801.27	-113.917	801.27	-113.917
				801.27	-113.917
				802.734	-109.606
				802.734	-109.606
				802.734	-109.606
		804.199	-105.299	804.199	-107.833
		804.199	-107.833	804.199	-107.833
				804.199	-107.833
		805.664	-103.98	805.664	-111.441
		805.664	-111.441	805.664	-111.441
				805.664	-111.441
		807.129	-106.59	807.129	-119.808
		807.129	-119.808	807.129	-119.808
				807.129	-119.808
		808.594	-105.538	808.594	-117.79
		808.594	-117.79	808.594	-117.79
				808.594	-117.79
		810.059	-103.888	810.059	-129.409
		810.059	-129.409	810.059	-129.409
				810.059	-129.409
811.523	-56.6488			811.523	-117.672
811.523	-117.672			811.523	-117.672
				811.523	-117.672
		812.988	-107.599	812.988	-112.354
		812.988	-112.354	812.988	-112.354
				812.988	-112.354
		814.453	-104.57	814.453	-109.808
		814.453	-109.808	814.453	-109.808
				814.453	-109.808
				815.918	-109.836
				815.918	-109.836
				815.918	-109.836
				817.383	-109.953
				817.383	-109.953
				817.383	-109.953
				818.848	-105.857
				818.848	-105.857
				818.848	-105.857
		820.313	-102.704	820.313	-105.408
		820.313	-105.408	820.313	-105.408
				820.313	-105.408
		821.777	-107.061	821.777	-114.225
		821.777	-114.225	821.777	-114.225
				821.777	-114.225
				823.242	-107.923
				823.242	-107.923
				823.242	-107.923
		824.707	-103.576	824.707	-114.531
		824.707	-114.531	824.707	-114.531
				824.707	-114.531
		826.172	-108.546	826.172	-114.405
		826.172	-114.405	826.172	-114.405
				826.172	-114.405
		827.637	-102.631	827.637	-110.598
		827.637	-110.598	827.637	-110.598
				827.637	-110.598
		829.102	-106.116	829.102	-115.484
		829.102	-115.484	829.102	-115.484
				829.102	-115.484
		830.566	-104.903	830.566	-112.94
		830.566	-112.94	830.566	-112.94
				830.566	-112.94
		832.031	-107.355	832.031	-114.127
		832.031	-114.127	832.031	-114.127
				832.031	-114.127
				833.496	-112.476
				833.496	-112.476
				833.496	-112.476
834.961	-56.7268			834.961	-107.621
834.961	-107.621			834.961	-107.621
				834.961	-107.621
		836.426	-106.452	836.426	-108.419
		836.426	-108.419	836.426	-108.419
				836.426	-108.419
		837.891	-102.13	837.891	-110.015
		837.891	-110.015	837.891	-110.015
				837.891	-110.015
				839.355	-112.196
				839.355	-112.196
				839.355	-112.196
		840.82	-105.571	840.82	-111.95
		840.82	-111.95	840.82	-111.95
				840.82	-111.95
		842.285	-102.379	842.285	-118.764
		842.285	-118.764	842.285	-118.764
				842.285	-118.764
				843.75	-107.898
				843.75	-107.898
				843.75	-107.898
		845.215	-108.78	845.215	-110.412
		845.215	-110.412	845.215	-110.412
				845.215	-110.412
		846.68	-103.833	846.68	-107.425
		846.68	-107.425	846.68	-107.425
				846.68	-107.425
		848.145	-107.972	848.145	-111.176
		848.145	-111.176	848.145	-111.176
				848.145	-111.176
		849.609	-101.356	849.609	-117.698
		849.609	-117.698	849.609	-117.698
				849.609	-117.698
		851.074	-110.501	851.074	-114.395
		851.074	-114.395	851.074	-114.395
				851.074	-114.395
		852.539	-107.893	852.539	-109.946
		852.539	-109.946	852.539	-109.946
				852.539	-109.946
		854.004	-118.026	854.004	-121.616
		854.004	-121.616	854.004	-121.616
				854.004	-121.616
				855.469	-109.173
				855.469	-109.173
				855.469	-109.173
				856.934	-107.578
				856.934	-107.578
				856.934	-107.578
		858.398	-104.912	858.398	-116.665
		858.398	-116.665	858.398	-116.665
				858.398	-116.665
859.863	-56.8265			859.863	-118.931
859.863	-118.931			859.863	-118.931
				859.863	-118.931
		861.328	-103.353	861.328	-106.286
		861.328	-106.286	861.328	-106.286
				861.328	-106.286
		862.793	-102.089	862.793	-110.928
		862.793	-110.928	862.793	-110.928
				862.793	-110.928
		864.258	-105.174	864.258	-108.916
		864.258	-108.916	864.258	-108.916
				864.258	-108.916
		865.723	-106.71	865.723	-113.187
		865.723	-113.187	865.723	-113.187
				865.723	-113.187
		867.188	-96.8628	867.188	-113.074
		867.188	-113.074	867.188	-113.074
				867.188	-113.074
				868.652	-117.214
				868.652	-117.214
				868.652	-117.214
		870.117	-100.586	870.117	-113.188
		870.117	-113.188	870.117	-113.188
				870.117	-113.188
		871.582	-108.084	871.582	-114.249
		871.582	-114.249	871.582	-114.249
				871.582	-114.249
		873.047	-109.57	873.047	-112.242
		873.047	-112.242	873.047	-112.242
				873.047	-112.242
		874.512	-110.326	874.512	-117.496
		874.512	-117.496	874.512	-117.496
				874.512	-117.496
		875.977	-105.301	875.977	-114.376
		875.977	-114.376	875.977	-114.376
				875.977	-114.376
		877.441	-102.438	877.441	-109.689
		877.441	-109.689	877.441	-109.689
				877.441	-109.689
				878.906	-118.213
				878.906	-118.213
				878.906	-118.213
		880.371	-97.5591	880.371	-125.208
		880.371	-125.208	880.371	-125.208
				880.371	-125.208
		881.836	-105.034	881.836	-111.868
		881.836	-111.868	881.836	-111.868
				881.836	-111.868
		883.301	-125.633	883.301	-130.198
		883.301	-130.198	883.301	-130.198
				883.301	-130.198
884.766	-56.9723			884.766	-117.878
884.766	-117.878			884.766	-117.878
				884.766	-117.878
		886.23	-105.704	886.23	-112.789
		886.23	-112.789	886.23	-112.789
				886.23	-112.789
		887.695	-102.75	887.695	-107.915
		887.695	-107.915	887.695	-107.915
				887.695	-107.915
		889.16	-104.993	889.16	-112.903
		889.16	-112.903	889.16	-112.903
				889.16	-112.903
		890.625	-113.039	890.625	-114.908
		890.625	-114.908	890.625	-114.908
				890.625	-114.908
		892.09	-108.39	892.09	-113.685
		892.09	-113.685	892.09	-113.685
				892.09	-113.685
		893.555	-107.789	893.555	-111.889
		893.555	-111.889	893.555	-111.889
				893.555	-111.889
				895.02	-108.972
				895.02	-108.972
				895.02	-108.972
				896.484	-104.865
				896.484	-104.865
				896.484	-104.865
				897.949	-105.827
				897.949	-105.827
				897.949	-105.827
		899.414	-105.783	899.414	-119.239
		899.414	-119.239	899.414	-119.239
				899.414	-119.239
		900.879	-104.114	900.879	-121.107
		900.879	-121.107	900.879	-121.107
				900.879	-121.107
		902.344	-104.08	902.344	-128.195
		902.344	-128.195	902.344	-128.195
				902.344	-128.195
		903.809	-106.013	903.809	-116.545
		903.809	-116.545	903.809	-116.545
				903.809	-116.545
		905.273	-108.715	905.273	-113.769
		905.273	-113.769	905.273	-113.769
				905.273	-113.769
		906.738	-109.191	906.738	-111.347
		906.738	-111.347	906.738	-111.347
				906.738	-111.347
		908.203	-101.836	908.203	-111.966
		908.203	-111.966	908.203	-111.966
				908.203	-111.966
		909.668	-110.606	909.668	-115.945
		909.668	-115.945	909.668	-115.945
				909.668	-115.945
911.133	-57.0498			911.133	-117.965
911.133	-117.965			911.133	-117.965
				911.133	-117.965
		912.598	-105.212	912.598	-116.822
		912.598	-116.822	912.598	-116.822
				912.598	-116.822
		914.063	-112.733	914.063	-117.005
		914.063	-117.005	914.063	-117.005
				914.063	-117.005
		915.527	-101.415	915.527	-109.188
		915.527	-109.188	915.527	-109.188
				915.527	-109.188
		916.992	-104.705	916.992	-112.185
		916.992	-112.185	916.992	-112.185
				916.992	-112.185
		918.457	-104.305	918.457	-114.337
		918.457	-114.337	918.457	-114.337
				918.457	-114.337
		919.922	-107.629	919.922	-115.927
		919.922	-115.927	919.922	-115.927
				919.922	-115.927
		921.387	-108.755	921.387	-114.362
		921.387	-114.362	921.387	-114.362
				921.387	-114.362
		922.852	-105.44	922.852	-116.898
		922.852	-116.898	922.852	-116.898
				922.852	-116.898
		924.316	-104.466	924.316	-111.237
		924.316	-111.237	924.316	-111.237
				924.316	-111.237
		925.781	-107.597	925.781	-110.633
		925.781	-110.633	925.781	-110.633
				925.781	-110.633
		927.246	-102.641	927.246	-109.908
		927.246	-109.908	927.246	-109.908
				927.246	-109.908
		928.711	-108.784	928.711	-115.526
		928.711	-115.526	928.711	-115.526
				928.711	-115.526
		930.176	-110.044	930.176	-116.77
		930.176	-116.77	930.176	-116.77
				930.176	-116.77
				931.641	-116.566
				931.641	-116.566
				931.641	-116.566
				933.105	-109.35
				933.105	-109.35
				933.105	-109.35
		934.57	-111.793	934.57	-114.568
		934.57	-114.568	934.57	-114.568
				934.57	-114.568
		936.035	-105.485	936.035	-114.499
		936.035	-114.499	936.035	-114.499
				936.035	-114.499
937.5	-57.1737			937.5	-128.788
937.5	-128.788			937.5	-128.788
				937.5	-128.788
				938.965	-109.913
				938.965	-109.913
				938.965	-109.913
		940.43	-106.201	940.43	-115.629
		940.43	-115.629	940.43	-115.629
				940.43	-115.629
		941.895	-111.946	941.895	-113.611
		941.895	-113.611	941.895	-113.611
				941.895	-113.611
		943.359	-104.204	943.359	-117.21
		943.359	-117.21	943.359	-117.21
				943.359	-117.21
		944.824	-105.126	944.824	-122.084
		944.824	-122.084	944.824	-122.084
				944.824	-122.084
				946.289	-109.52
				946.289	-109.52
				946.289	-109.52
		947.754	-107.392	947.754	-119.248
		947.754	-119.248	947.754	-119.248
				947.754	-119.248
		949.219	-103.325	949.219	-122.926
		949.219	-122.926	949.219	-122.926
				949.219	-122.926
		950.684	-109.871	950.684	-111.424
		950.684	-111.424	950.684	-111.424
				950.684	-111.424
		952.148	-109.896	952.148	-113.605
		952.148	-113.605	952.148	-113.605
				952.148	-113.605
				953.613	-113.598
				953.613	-113.598
				953.613	-113.598
		955.078	-107.557	955.078	-114.633
		955.078	-114.633	955.078	-114.633
				955.078	-114.633
		956.543	-106.324	956.543	-115.361
		956.543	-115.361	956.543	-115.361
				956.543	-115.361
		958.008	-107.925	958.008	-120.124
		958.008	-120.124	958.008	-120.124
				958.008	-120.124
		959.473	-104.874	959.473	-124.971
		959.473	-124.971	959.473	-124.971
				959.473	-124.971
		960.938	-113.472	960.938	-117.892
		960.938	-117.892	960.938	-117.892
				960.938	-117.892
		962.402	-106.729	962.402	-112.399
		962.402	-112.399	962.402	-112.399
				962.402	-112.399
				963.867	-111.327
				963.867	-111.327
				963.867	-111.327
965.332	-57.2624			965.332	-107.057
965.332	-107.057			965.332	-107.057
				965.332	-107.057
		966.797	-105.424	966.797	-116.443
		966.797	-116.443	966.797	-116.443
				966.797	-116.443
				968.262	-112.96
				968.262	-112.96
				968.262	-112.96
		969.727	-106.625	969.727	-116.128
		969.727	-116.128	969.727	-116.128
				969.727	-116.128
		971.191	-107.376	971.191	-109.722
		971.191	-109.722	971.191	-109.722
				971.191	-109.722
				972.656	-118.686
				972.656	-118.686
				972.656	-118.686
		974.121	-115.142	974.121	-116.661
		974.121	-116.661	974.121	-116.661
				974.121	-116.661
		975.586	-111.411	975.586	-120.633
		975.586	-120.633	975.586	-120.633
				975.586	-120.633
		977.051	-110.585	977.051	-118.059
		977.051	-118.059	977.051	-118.059
				977.051	-118.059
		978.516	-112.315	978.516	-113.37
		978.516	-113.37	978.516	-113.37
				978.516	-113.37
		979.98	-101.645	979.98	-108.763
		979.98	-108.763	979.98	-108.763
				979.98	-108.763
		981.445	-102.493	981.445	-109.572
		981.445	-109.572	981.445	-109.572
				981.445	-109.572
		982.91	-113.206	982.91	-114.63
		982.91	-114.63	982.91	-114.63
				982.91	-114.63
		984.375	-107.578	984.375	-133.153
		984.375	-133.153	984.375	-133.153
				984.375	-133.153
		985.84	-107.533	985.84	-111.07
		985.84	-111.07	985.84	-111.07
				985.84	-111.07
				987.305	-107.427
				987.305	-107.427
				987.305	-107.427
				988.77	-114.963
				988.77	-114.963
				988.77	-114.963
		990.234	-107.227	990.234	-117.784
		990.234	-117.784	990.234	-117.784
				990.234	-117.784
		991.699	-107.343	991.699	-111.039
		991.699	-111.039	991.699	-111.039
				991.699	-111.039
993.164	-57.4161			993.164	-110.718
993.164	-110.718			993.164	-110.718
				993.164	-110.718
		994.629	-107.79	994.629	-110.346
		994.629	-110.346	994.629	-110.346
				994.629	-110.346
		996.094	-109.16	996.094	-133.512
		996.094	-133.512	996.094	-133.512
				996.094	-133.512
		997.559	-101.53	997.559	-111.114
		997.559	-111.114	997.559	-111.114
				997.559	-111.114
		999.023	-102.988	999.023	-114.964
		999.023	-114.964	999.023	-114.964
				999.023	-114.964
		1000.49	-107.476	1000.49	-113.185
		1000.49	-113.185	1000.49	-113.185
				1000.49	-113.185
		1001.95	-104.853	1001.95	-123.978
		1001.95	-123.978	1001.95	-123.978
				1001.95	-123.978
		1003.42	-102.297	1003.42	-113.653
		1003.42	-113.653	1003.42	-113.653
				1003.42	-113.653
		1004.88	-106.35	1004.88	-116.101
		1004.88	-116.101	1004.88	-116.101
				1004.88	-116.101
		1006.35	-103.872	1006.35	-113.884
		1006.35	-113.884	1006.35	-113.884
				1006.35	-113.884
		1007.81	-109.78	1007.81	-114.728
		1007.81	-114.728	1007.81	-114.728
				1007.81	-114.728
		1009.28	-112.521	1009.28	-113.622
		1009.28	-113.622	1009.28	-113.622
				1009.28	-113.622
		1010.74	-104.06	1010.74	-106.76
		1010.74	-106.76	1010.74	-106.76
				1010.74	-106.76
		1012.21	-107.467	1012.21	-119.153
		1012.21	-119.153	1012.21	-119.153
				1012.21	-119.153
				1013.67	-112.422
				1013.67	-112.422
				1013.67	-112.422
		1015.14	-108.824	1015.14	-110.892
		1015.14	-110.892	1015.14	-110.892
				1015.14	-110.892
				1016.6	-109.912
				1016.6	-109.912
				1016.6	-109.912
		1018.07	-103.957	1018.07	-123.059
		1018.07	-123.059	1018.07	-123.059
				1018.07	-123.059
		1019.53	-106.964	1019.53	-113.633
		1019.53	-113.633	1019.53	-113.633
				1019.53	-113.633
		1021	-103.268	1021	-107.47
		1021	-107.47	1021	-107.47
				1021	-107.47
1022.46	-57.5541			1022.46	-108.893
1022.46	-108.893			1022.46	-108.893
				1022.46	-108.893
		1023.93	-103.035	1023.93	-124.462
		1023.93	-124.462	1023.93	-124.462
				1023.93	-124.462
		1025.39	-114.774	1025.39	-128.746
		1025.39	-128.746	1025.39	-128.746
				1025.39	-128.746
		1026.86	-109.349	1026.86	-112.362
		1026.86	-112.362	1026.86	-112.362
				1026.86	-112.362
		1028.32	-101.5	1028.32	-114.955
		1028.32	-114.955	1028.32	-114.955
				1028.32	-114.955
				1029.79	-109.344
				1029.79	-109.344
				1029.79	-109.344
				1031.25	-110.432
				1031.25	-110.432
				1031.25	-110.432
		1032.71	-110.739	1032.71	-122.037
		1032.71	-122.037	1032.71	-122.037
				1032.71	-122.037
		1034.18	-102.806	1034.18	-110.058
		1034.18	-110.058	1034.18	-110.058
				1034.18	-110.058
		1035.64	-107.574	1035.64	-113.432
		1035.64	-113.432	1035.64	-113.432
				1035.64	-113.432
		1037.11	-108.286	1037.11	-114.266
		1037.11	-114.266	1037.11	-114.266
				1037.11	-114.266
		1038.57	-104.498	1038.57	-114.029
		1038.57	-114.029	1038.57	-114.029
				1038.57	-114.029
		1040.04	-103.472	1040.04	-118.073
		1040.04	-118.073	1040.04	-118.073
				1040.04	-118.073
		1041.5	-104.534	1041.5	-110.467
		1041.5	-110.467	1041.5	-110.467
				1041.5	-110.467
		1042.97	-104.069	1042.97	-110.271
		1042.97	-110.271	1042.97	-110.271
				1042.97	-110.271
		1044.43	-111.242	1044.43	-121.834
		1044.43	-121.834	1044.43	-121.834
				1044.43	-121.834
				1045.9	-108.231
				1045.9	-108.231
				1045.9	-108.231
				1047.36	-113.525
				1047.36	-113.525
				1047.36	-113.525
		1048.83	-105.721	1048.83	-113.299
		1048.83	-113.299	1048.83	-113.299
				1048.83	-113.299
		1050.29	-104.438	1050.29	-107.845
		1050.29	-107.845	1050.29	-107.845
				1050.29	-107.845
1051.76	-57.7779			1051.76	-121.929
1051.76	-121.929			1051.76	-121.929
				1051.76	-121.929
		1053.22	-108.174	1053.22	-110.924
		1053.22	-110.924	1053.22	-110.924
				1053.22	-110.924
		1054.69	-107.347	1054.69	-112.672
		1054.69	-112.672	1054.69	-112.672
				1054.69	-112.672
				1056.15	-114.799
				1056.15	-114.799
				1056.15	-114.799
		1057.62	-109.583	1057.62	-119.686
		1057.62	-119.686	1057.62	-119.686
				1057.62	-119.686
		1059.08	-114.759	1059.08	-121.059
		1059.08	-121.059	1059.08	-121.059
				1059.08	-121.059
		1060.55	-115.934	1060.55	-119.673
		1060.55	-119.673	1060.55	-119.673
				1060.55	-119.673
		1062.01	-107.907	1062.01	-110.034
		1062.01	-110.034	1062.01	-110.034
				1062.01	-110.034
		1063.48	-108.494	1063.48	-120.264
		1063.48	-120.264	1063.48	-120.264
				1063.48	-120.264
		1064.94	-105.911	1064.94	-117.379
		1064.94	-117.379	1064.94	-117.379
				1064.94	-117.379
		1066.41	-112.484	1066.41	-116.411
		1066.41	-116.411	1066.41	-116.411
				1066.41	-116.411
		1067.87	-105.626	1067.87	-115.729
		1067.87	-115.729	1067.87	-115.729
				1067.87	-115.729
		1069.34	-103.246	1069.34	-117.017
		1069.34	-117.017	1069.34	-117.017
				1069.34	-117.017
				1070.8	-106.05
				1070.8	-106.05
				1070.8	-106.05
		1072.27	-103.857	1072.27	-110.342
		1072.27	-110.342	1072.27	-110.342
				1072.27	-110.342
		1073.73	-105.856	1073.73	-117.55
		1073.73	-117.55	1073.73	-117.55
				1073.73	-117.55
		1075.2	-110.157	1075.2	-114.597
		1075.2	-114.597	1075.2	-114.597
				1075.2	-114.597
				1076.66	-110.802
				1076.66	-110.802
				1076.66	-110.802
		1078.13	-115.745	1078.13	-120.822
		1078.13	-120.822	1078.13	-120.822
				1078.13	-120.822
		1079.59	-108.448	1079.59	-124.518
		1079.59	-124.518	1079.59	-124.518
				1079.59	-124.518
		1081.05	-104.093	1081.05	-105.555
		1081.05	-105.555	1081.05	-105.555
				1081.05	-105.555
1082.52	-57.8965			1082.52	-108.909
1082.52	-108.909			1082.52	-108.909
				1082.52	-108.909
		1083.98	-104.979	1083.98	-114.587
		1083.98	-114.587	1083.98	-114.587
				1083.98	-114.587
		1085.45	-116.09	1085.45	-125.629
		1085.45	-125.629	1085.45	-125.629
				1085.45	-125.629
		1086.91	-105.191	1086.91	-117.256
		1086.91	-117.256	1086.91	-117.256
				1086.91	-117.256
		1088.38	-113.839	1088.38	-121.487
		1088.38	-121.487	1088.38	-121.487
				1088.38	-121.487
		1089.84	-107.991	1089.84	-117.035
		1089.84	-117.035	1089.84	-117.035
				1089.84	-117.035
				1091.31	-117.452
				1091.31	-117.452
				1091.31	-117.452
		1092.77	-110.557	1092.77	-115.303
		1092.77	-115.303	1092.77	-115.303
				1092.77	-115.303
				1094.24	-117.411
				1094.24	-117.411
				1094.24	-117.411
		1095.7	-112.522	1095.7	-117.4
		1095.7	-117.4	1095.7	-117.4
				1095.7	-117.4
				1097.17	-105.936
				1097.17	-105.936
				1097.17	-105.936
		1098.63	-109.954	1098.63	-135.321
		1098.63	-135.321	1098.63	-135.321
				1098.63	-135.321
		1100.1	-110.652	1100.1	-120.428
		1100.1	-120.428	1100.1	-120.428
				1100.1	-120.428
				1101.56	-102.492
				1101.56	-102.492
				1101.56	-102.492
				1103.03	-119.446
				1103.03	-119.446
				1103.03	-119.446
		1104.49	-106.668	1104.49	-112.834
		1104.49	-112.834	1104.49	-112.834
				1104.49	-112.834
		1105.96	-107.169	1105.96	-110.678
		1105.96	-110.678	1105.96	-110.678
				1105.96	-110.678
		1107.42	-110.703	1107.42	-119.47
		1107.42	-119.47	1107.42	-119.47
				1107.42	-119.47
				1108.89	-110.7
				1108.89	-110.7
				1108.89	-110.7
		1110.35	-105.67	1110.35	-110.715
		1110.35	-110.715	1110.35	-110.715
				1110.35	-110.715
		1111.82	-109.155	1111.82	-124.644
		1111.82	-124.644	1111.82	-124.644
				1111.82	-124.644
		1113.28	-108.653	1113.28	-116.944
		1113.28	-116.944	1113.28	-116.944
				1113.28	-116.944
1114.75	-57.9492			1114.75	-109.5
1114.75	-109.5			1114.75	-109.5
				1114.75	-109.5
				1116.21	-113.579
				1116.21	-113.579
				1116.21	-113.579
		1117.68	-106.423	1117.68	-113.741
		1117.68	-113.741	1117.68	-113.741
				1117.68	-113.741
		1119.14	-109.618	1119.14	-124.398
		1119.14	-124.398	1119.14	-124.398
				1119.14	-124.398
		1120.61	-106.964	1120.61	-123.938
		1120.61	-123.938	1120.61	-123.938
				1120.61	-123.938
		1122.07	-100.175	1122.07	-126.215
		1122.07	-126.215	1122.07	-126.215
				1122.07	-126.215
				1123.54	-108.149
				1123.54	-108.149
				1123.54	-108.149
				1125	-108.857
				1125	-108.857
				1125	-108.857
		1126.46	-112.039	1126.46	-117.239
		1126.46	-117.239	1126.46	-117.239
				1126.46	-117.239
		1127.93	-108.197	1127.93	-116.197
		1127.93	-116.197	1127.93	-116.197
				1127.93	-116.197
		1129.39	-112.096	1129.39	-116.822
		1129.39	-116.822	1129.39	-116.822
				1129.39	-116.822
		1130.86	-111.045	1130.86	-115.665
		1130.86	-115.665	1130.86	-115.665
				1130.86	-115.665
		1132.32	-102.655	1132.32	-119.84
		1132.32	-119.84	1132.32	-119.84
				1132.32	-119.84
		1133.79	-104.653	1133.79	-110.243
		1133.79	-110.243	1133.79	-110.243
				1133.79	-110.243
		1135.25	-108.903	1135.25	-113.967
		1135.25	-113.967	1135.25	-113.967
				1135.25	-113.967
		1136.72	-103.808	1136.72	-114.001
		1136.72	-114.001	1136.72	-114.001
				1136.72	-114.001
		1138.18	-107.45	1138.18	-122.051
		1138.18	-122.051	1138.18	-122.051
				1138.18	-122.051
				1139.65	-104.406
				1139.65	-104.406
				1139.65	-104.406
		1141.11	-105.023	1141.11	-107.11
		1141.11	-107.11	1141.11	-107.11
				1141.11	-107.11
		1142.58	-106.815	1142.58	-109.342
		1142.58	-109.342	1142.58	-109.342
				1142.58	-109.342
				1144.04	-108.04
				1144.04	-108.04
				1144.04	-108.04
				1145.51	-108.139
				1145.51	-108.139
				1145.51	-108.139
1146.97	-57.9727			1146.97	-119.893
1146.97	-119.893			1146.97	-119.893
				1146.97	-119.893
				1148.44	-120.006
				1148.44	-120.006
				1148.44	-120.006
				1149.9	-108.601
				1149.9	-108.601
				1149.9	-108.601
		1151.37	-105.963	1151.37	-120.553
		1151.37	-120.553	1151.37	-120.553
				1151.37	-120.553
		1152.83	-101.457	1152.83	-120.496
		1152.83	-120.496	1152.83	-120.496
				1152.83	-120.496
				1154.3	-104.31
				1154.3	-104.31
				1154.3	-104.31
				1155.76	-107.935
				1155.76	-107.935
				1155.76	-107.935
		1157.23	-106.183	1157.23	-108.82
		1157.23	-108.82	1157.23	-108.82
				1157.23	-108.82
		1158.69	-108.297	1158.69	-118.796
		1158.69	-118.796	1158.69	-118.796
				1158.69	-118.796
		1160.16	-103.231	1160.16	-109.682
		1160.16	-109.682	1160.16	-109.682
				1160.16	-109.682
		1161.62	-112.189	1161.62	-119.722
		1161.62	-119.722	1161.62	-119.722
				1161.62	-119.722
		1163.09	-104.537	1163.09	-112.227
		1163.09	-112.227	1163.09	-112.227
				1163.09	-112.227
		1164.55	-103.785	1164.55	-107.365
		1164.55	-107.365	1164.55	-107.365
				1164.55	-107.365
		1166.02	-105.741	1166.02	-117.803
		1166.02	-117.803	1166.02	-117.803
				1166.02	-117.803
		1167.48	-104.925	1167.48	-112.085
		1167.48	-112.085	1167.48	-112.085
				1167.48	-112.085
				1168.95	-110.987
				1168.95	-110.987
				1168.95	-110.987
		1170.41	-108	1170.41	-114.664
		1170.41	-114.664	1170.41	-114.664
				1170.41	-114.664
		1171.88	-105.161	1171.88	-110.498
		1171.88	-110.498	1171.88	-110.498
				1171.88	-110.498
		1173.34	-106.869	1173.34	-115.357
		1173.34	-115.357	1173.34	-115.357
				1173.34	-115.357
		1174.8	-106.623	1174.8	-142.692
		1174.8	-142.692	1174.8	-142.692
				1174.8	-142.692
		1176.27	-104.107	1176.27	-107.385
		1176.27	-107.385	1176.27	-107.385
				1176.27	-107.385
				1177.73	-110.876
				1177.73	-110.876
				1177.73	-110.876
				1179.2	-113.863
				1179.2	-113.863
				1179.2	-113.863
1180.66	-57.904			1180.66	-109.338
1180.66	-109.338			1180.66	-109.338
				1180.66	-109.338
		1182.13	-111.251	1182.13	-125.898
		1182.13	-125.898	1182.13	-125.898
				1182.13	-125.898
		1183.59	-106.438	1183.59	-112.645
		1183.59	-112.645	1183.59	-112.645
				1183.59	-112.645
				1185.06	-111.659
				1185.06	-111.659
				1185.06	-111.659
				1186.52	-106.753
				1186.52	-106.753
				1186.52	-106.753
		1187.99	-102.425	1187.99	-115.87
		1187.99	-115.87	1187.99	-115.87
				1187.99	-115.87
				1189.45	-110.136
				1189.45	-110.136
				1189.45	-110.136
		1190.92	-116.007	1190.92	-121.067
		1190.92	-121.067	1190.92	-121.067
				1190.92	-121.067
		1192.38	-110.705	1192.38	-111.763
		1192.38	-111.763	1192.38	-111.763
				1192.38	-111.763
		1193.85	-104.191	1193.85	-118.971
		1193.85	-118.971	1193.85	-118.971
				1193.85	-118.971
		1195.31	-111.23	1195.31	-132.415
		1195.31	-132.415	1195.31	-132.415
				1195.31	-132.415
				1196.78	-112.161
				1196.78	-112.161
				1196.78	-112.161
		1198.24	-109.704	1198.24	-116.153
		1198.24	-116.153	1198.24	-116.153
				1198.24	-116.153
		1199.71	-107.384	1199.71	-115.166
		1199.71	-115.166	1199.71	-115.166
				1199.71	-115.166
		1201.17	-102.259	1201.17	-118.671
		1201.17	-118.671	1201.17	-118.671
				1201.17	-118.671
				1202.64	-107.63
				1202.64	-107.63
				1202.64	-107.63
		1204.1	-104.043	1204.1	-112.394
		1204.1	-112.394	1204.1	-112.394
				1204.1	-112.394
		1205.57	-105.527	1205.57	-119.738
		1205.57	-119.738	1205.57	-119.738
				1205.57	-119.738
		1207.03	-102.074	1207.03	-129.267
		1207.03	-129.267	1207.03	-129.267
				1207.03	-129.267
		1208.5	-103.783	1208.5	-111.592
		1208.5	-111.592	1208.5	-111.592
				1208.5	-111.592
		1209.96	-108.943	1209.96	-111.466
		1209.96	-111.466	1209.96	-111.466
				1209.96	-111.466
		1211.43	-108.988	1211.43	-111.648
		1211.43	-111.648	1211.43	-111.648
				1211.43	-111.648
		1212.89	-103.396	1212.89	-119.664
		1212.89	-119.664	1212.89	-119.664
				1212.89	-119.664
		1214.36	-107.809	1214.36	-113.335
		1214.36	-113.335	1214.36	-113.335
				1214.36	-113.335
1215.82	-57.8696			1215.82	-111.524
1215.82	-111.524			1215.82	-111.524
				1215.82	-111.524
		1217.29	-113.763	1217.29	-117.481
		1217.29	-117.481	1217.29	-117.481
				1217.29	-117.481
		1218.75	-108.088	1218.75	-114.861
		1218.75	-114.861	1218.75	-114.861
				1218.75	-114.861
		1220.21	-102.362	1220.21	-111.597
		1220.21	-111.597	1220.21	-111.597
				1220.21	-111.597
		1221.68	-104.148	1221.68	-111.473
		1221.68	-111.473	1221.68	-111.473
				1221.68	-111.473
		1223.14	-113.969	1223.14	-115.204
		1223.14	-115.204	1223.14	-115.204
				1223.14	-115.204
				1224.61	-107.996
				1224.61	-107.996
				1224.61	-107.996
		1226.07	-112.101	1226.07	-116.388
		1226.07	-116.388	1226.07	-116.388
				1226.07	-116.388
		1227.54	-104.47	1227.54	-114.988
		1227.54	-114.988	1227.54	-114.988
				1227.54	-114.988
		1229	-113.808	1229	-120.787
		1229	-120.787	1229	-120.787
				1229	-120.787
				1230.47	-111.885
				1230.47	-111.885
				1230.47	-111.885
		1231.93	-102.774	1231.93	-110.378
		1231.93	-110.378	1231.93	-110.378
				1231.93	-110.378
				1233.4	-110.064
				1233.4	-110.064
				1233.4	-110.064
				1234.86	-110.216
				1234.86	-110.216
				1234.86	-110.216
				1236.33	-113.498
				1236.33	-113.498
				1236.33	-113.498
		1237.79	-104.142	1237.79	-117.351
		1237.79	-117.351	1237.79	-117.351
				1237.79	-117.351
		1239.26	-102.444	1239.26	-115.665
		1239.26	-115.665	1239.26	-115.665
				1239.26	-115.665
		1240.72	-100.751	1240.72	-111.366
		1240.72	-111.366	1240.72	-111.366
				1240.72	-111.366
				1242.19	-112.757
				1242.19	-112.757
				1242.19	-112.757
				1243.65	-107.561
				1243.65	-107.561
				1243.65	-107.561
		1245.12	-112.349	1245.12	-113.781
		1245.12	-113.781	1245.12	-113.781
				1245.12	-113.781
		1246.58	-101.59	1246.58	-118.68
		1246.58	-118.68	1246.58	-118.68
				1246.58	-118.68
		1248.05	-102.132	1248.05	-107.349
		1248.05	-107.349	1248.05	-107.349
				1248.05	-107.349
		1249.51	-110.228	1249.51	-124.056
		1249.51	-124.056	1249.51	-124.056
				1249.51	-124.056
1250.98	-57.8469			1250.98	-121.433
1250.98	-121.433			1250.98	-121.433
				1250.98	-121.433
		1252.44	-109.464	1252.44	-115.141
		1252.44	-115.141	1252.44	-115.141
				1252.44	-115.141
		1253.91	-103.318	1253.91	-107.672
		1253.91	-107.672	1253.91	-107.672
				1253.91	-107.672
		1255.37	-109.819	1255.37	-121.51
		1255.37	-121.51	1255.37	-121.51
				1255.37	-121.51
		1256.84	-104.881	1256.84	-122.858
		1256.84	-122.858	1256.84	-122.858
				1256.84	-122.858
		1258.3	-102.621	1258.3	-111.518
		1258.3	-111.518	1258.3	-111.518
				1258.3	-111.518
		1259.77	-107.753	1259.77	-111.038
		1259.77	-111.038	1259.77	-111.038
				1259.77	-111.038
		1261.23	-107.349	1261.23	-113.456
		1261.23	-113.456	1261.23	-113.456
				1261.23	-113.456
				1262.7	-109.551
				1262.7	-109.551
				1262.7	-109.551
		1264.16	-101.472	1264.16	-110.468
		1264.16	-110.468	1264.16	-110.468
				1264.16	-110.468
		1265.63	-117.914	1265.63	-125.034
		1265.63	-125.034	1265.63	-125.034
				1265.63	-125.034
				1267.09	-109.24
				1267.09	-109.24
				1267.09	-109.24
		1268.55	-104.795	1268.55	-127.101
		1268.55	-127.101	1268.55	-127.101
				1268.55	-127.101
		1270.02	-106.151	1270.02	-118.527
		1270.02	-118.527	1270.02	-118.527
				1270.02	-118.527
				1271.48	-112.547
				1271.48	-112.547
				1271.48	-112.547
				1272.95	-116.824
				1272.95	-116.824
				1272.95	-116.824
		1274.41	-107.497	1274.41	-125.282
		1274.41	-125.282	1274.41	-125.282
				1274.41	-125.282
		1275.88	-110.476	1275.88	-114.179
		1275.88	-114.179	1275.88	-114.179
				1275.88	-114.179
		1277.34	-103.356	1277.34	-117.005
		1277.34	-117.005	1277.34	-117.005
				1277.34	-117.005
		1278.81	-113.498	1278.81	-119.184
		1278.81	-119.184	1278.81	-119.184
				1278.81	-119.184
				1280.27	-106.634
				1280.27	-106.634
				1280.27	-106.634
		1281.74	-108.849	1281.74	-110.819
		1281.74	-110.819	1281.74	-110.819
				1281.74	-110.819
		1283.2	-109.305	1283.2	-115.039
		1283.2	-115.039	1283.2	-115.039
				1283.2	-115.039
		1284.67	-106.443	1284.67	-116.563
		1284.67	-116.563	1284.67	-116.563
				1284.67	-116.563
		1286.13	-105.05	1286.13	-110.164
		1286.13	-110.164	1286.13	-110.164
				1286.13	-110.164
1287.6	-57.8993			1287.6	-125.203
1287.6	-125.203			1287.6	-125.203
				1287.6	-125.203
		1289.06	-109.758	1289.06	-126.469
		1289.06	-126.469	1289.06	-126.469
				1289.06	-126.469
		1290.53	-103.17	1290.53	-105.174
		1290.53	-105.174	1290.53	-105.174
				1290.53	-105.174
		1291.99	-106.24	1291.99	-109.809
		1291.99	-109.809	1291.99	-109.809
				1291.99	-109.809
				1293.46	-113.204
				1293.46	-113.204
				1293.46	-113.204
		1294.92	-106.52	1294.92	-109.054
		1294.92	-109.054	1294.92	-109.054
				1294.92	-109.054
		1296.39	-108.153	1296.39	-117.184
		1296.39	-117.184	1296.39	-117.184
				1296.39	-117.184
				1297.85	-112.992
				1297.85	-112.992
				1297.85	-112.992
		1299.32	-109.389	1299.32	-112.41
		1299.32	-112.41	1299.32	-112.41
				1299.32	-112.41
		1300.78	-104.467	1300.78	-113.503
		1300.78	-113.503	1300.78	-113.503
				1300.78	-113.503
		1302.25	-111.62	1302.25	-114.758
		1302.25	-114.758	1302.25	-114.758
				1302.25	-114.758
		1303.71	-106.449	1303.71	-120.264
		1303.71	-120.264	1303.71	-120.264
				1303.71	-120.264
		1305.18	-103.149	1305.18	-109.528
		1305.18	-109.528	1305.18	-109.528
				1305.18	-109.528
				1306.64	-108.384
				1306.64	-108.384
				1306.64	-108.384
		1308.11	-107.725	1308.11	-117.639
		1308.11	-117.639	1308.11	-117.639
				1308.11	-117.639
		1309.57	-111.896	1309.57	-116.181
		1309.57	-116.181	1309.57	-116.181
				1309.57	-116.181
				1311.04	-114.143
				1311.04	-114.143
				1311.04	-114.143
		1312.5	-101.561	1312.5	-115.406
		1312.5	-115.406	1312.5	-115.406
				1312.5	-115.406
				1313.96	-114.642
				1313.96	-114.642
				1313.96	-114.642
		1315.43	-104.667	1315.43	-117.091
		1315.43	-117.091	1315.43	-117.091
				1315.43	-117.091
				1316.89	-106.246
				1316.89	-106.246
				1316.89	-106.246
		1318.36	-106.69	1318.36	-117.304
		1318.36	-117.304	1318.36	-117.304
				1318.36	-117.304
				1319.82	-114.755
				1319.82	-114.755
				1319.82	-114.755
				1321.29	-107.342
				1321.29	-107.342
				1321.29	-107.342
		1322.75	-110.557	1322.75	-112.457
		1322.75	-112.457	1322.75	-112.457
				1322.75	-112.457
		1324.22	-107.083	1324.22	-127.693
		1324.22	-127.693	1324.22	-127.693
				1324.22	-127.693
1325.68	-57.9855			1325.68	-112.154
1325.68	-112.154			1325.68	-112.154
				1325.68	-112.154
		1327.15	-103.402	1327.15	-112.832
		1327.15	-112.832	1327.15	-112.832
				1327.15	-112.832
				1328.61	-103.416
				1328.61	-103.416
				1328.61	-103.416
		1330.08	-106.372	1330.08	-116.825
		1330.08	-116.825	1330.08	-116.825
				1330.08	-116.825
				1331.54	-112.386
				1331.54	-112.386
				1331.54	-112.386
		1333.01	-106.489	1333.01	-116.415
		1333.01	-116.415	1333.01	-116.415
				1333.01	-116.415
				1334.47	-107.139
				1334.47	-107.139
				1334.47	-107.139
		1335.94	-108.073	1335.94	-109.175
		1335.94	-109.175	1335.94	-109.175
				1335.94	-109.175
		1337.4	-109.433	1337.4	-127.435
		1337.4	-127.435	1337.4	-127.435
				1337.4	-127.435
		1338.87	-104.251	1338.87	-114.488
		1338.87	-114.488	1338.87	-114.488
				1338.87	-114.488
		1340.33	-111.331	1340.33	-116.043
		1340.33	-116.043	1340.33	-116.043
				1340.33	-116.043
		1341.8	-104.424	1341.8	-113.367
		1341.8	-113.367	1341.8	-113.367
				1341.8	-113.367
		1343.26	-102.361	1343.26	-109.727
		1343.26	-109.727	1343.26	-109.727
				1343.26	-109.727
		1344.73	-109.953	1344.73	-116.347
		1344.73	-116.347	1344.73	-116.347
				1344.73	-116.347
				1346.19	-112.202
				1346.19	-112.202
				1346.19	-112.202
		1347.66	-106.425	1347.66	-118.191
		1347.66	-118.191	1347.66	-118.191
				1347.66	-118.191
		1349.12	-106.168	1349.12	-110.032
		1349.12	-110.032	1349.12	-110.032
				1349.12	-110.032
		1350.59	-99.2264	1350.59	-114.532
		1350.59	-114.532	1350.59	-114.532
				1350.59	-114.532
				1352.05	-105.653
				1352.05	-105.653
				1352.05	-105.653
		1353.52	-105.243	1353.52	-115.446
		1353.52	-115.446	1353.52	-115.446
				1353.52	-115.446
		1354.98	-102.353	1354.98	-125.511
		1354.98	-125.511	1354.98	-125.511
				1354.98	-125.511
				1356.45	-108.898
				1356.45	-108.898
				1356.45	-108.898
		1357.91	-106.986	1357.91	-111.624
		1357.91	-111.624	1357.91	-111.624
				1357.91	-111.624
		1359.38	-110.896	1359.38	-119.669
		1359.38	-119.669	1359.38	-119.669
				1359.38	-119.669
		1360.84	-106.968	1360.84	-109.605
		1360.84	-109.605	1360.84	-109.605
				1360.84	-109.605
		1362.3	-108.196	1362.3	-118.497
		1362.3	-118.497	1362.3	-118.497
				1362.3	-118.497
		1363.77	-106.989	1363.77	-117.442
		1363.77	-117.442	1363.77	-117.442
				1363.77	-117.442
1365.23	-58.039			1365.23	-111.064
1365.23	-111.064			1365.23	-111.064
				1365.23	-111.064
		1366.7	-109.449	1366.7	-118.207
		1366.7	-118.207	1366.7	-118.207
				1366.7	-118.207
		1368.16	-106.194	1368.16	-115.362
		1368.16	-115.362	1368.16	-115.362
				1368.16	-115.362
				1369.63	-114.429
				1369.63	-114.429
				1369.63	-114.429
		1371.09	-106.275	1371.09	-117.004
		1371.09	-117.004	1371.09	-117.004
				1371.09	-117.004
		1372.56	-110.829	1372.56	-117.553
		1372.56	-117.553	1372.56	-117.553
				1372.56	-117.553
		1374.02	-108.129	1374.02	-119.108
		1374.02	-119.108	1374.02	-119.108
				1374.02	-119.108
				1375.49	-110.37
				1375.49	-110.37
				1375.49	-110.37
				1376.95	-111.795
				1376.95	-111.795
				1376.95	-111.795
				1378.42	-109.961
				1378.42	-109.961
				1378.42	-109.961
				1379.88	-111.209
				1379.88	-111.209
				1379.88	-111.209
		1381.35	-106.13	1381.35	-111.62
		1381.35	-111.62	1381.35	-111.62
				1381.35	-111.62
				1382.81	-110.201
				1382.81	-110.201
				1382.81	-110.201
		1384.28	-109.657	1384.28	-112.814
		1384.28	-112.814	1384.28	-112.814
				1384.28	-112.814
		1385.74	-108.22	1385.74	-118.015
		1385.74	-118.015	1385.74	-118.015
				1385.74	-118.015
		1387.21	-104.967	1387.21	-112.245
		1387.21	-112.245	1387.21	-112.245
				1387.21	-112.245
		1388.67	-106.777	1388.67	-113.617
		1388.67	-113.617	1388.67	-113.617
				1388.67	-113.617
				1390.14	-118.361
				1390.14	-118.361
				1390.14	-118.361
		1391.6	-104.52	1391.6	-119.179
		1391.6	-119.179	1391.6	-119.179
				1391.6	-119.179
				1393.07	-115.972
				1393.07	-115.972
				1393.07	-115.972
		1394.53	-118.567	1394.53	-126.193
		1394.53	-126.193	1394.53	-126.193
				1394.53	-126.193
		1396	-105.943	1396	-107.495
		1396	-107.495	1396	-107.495
				1396	-107.495
		1397.46	-114.257	1397.46	-116.477
		1397.46	-116.477	1397.46	-116.477
				1397.46	-116.477
		1398.93	-110.288	1398.93	-111.676
		1398.93	-111.676	1398.93	-111.676
				1398.93	-111.676
		1400.39	-107.534	1400.39	-112.765
		1400.39	-112.765	1400.39	-112.765
				1400.39	-112.765
		1401.86	-109.219	1401.86	-113.801
		1401.86	-113.801	1401.86	-113.801
				1401.86	-113.801
		1403.32	-116.536	1403.32	-124.699
		1403.32	-124.699	1403.32	-124.699
				1403.32	-124.699
1404.79	-58.1258			1404.79	-110.007
1404.79	-110.007			1404.79	-110.007
				1404.79	-110.007
		1406.25	-106.373	1406.25	-111.647
		1406.25	-111.647	1406.25	-111.647
				1406.25	-111.647
		1407.71	-110.714	1407.71	-111.849
		1407.71	-111.849	1407.71	-111.849
				1407.71	-111.849
		1409.18	-108.779	1409.18	-111.412
		1409.18	-111.412	1409.18	-111.412
				1409.18	-111.412
		1410.64	-108.518	1410.64	-117.726
		1410.64	-117.726	1410.64	-117.726
				1410.64	-117.726
		1412.11	-109.619	1412.11	-117.567
		1412.11	-117.567	1412.11	-117.567
				1412.11	-117.567
				1413.57	-118.591
				1413.57	-118.591
				1413.57	-118.591
		1415.04	-107.437	1415.04	-108.929
		1415.04	-108.929	1415.04	-108.929
				1415.04	-108.929
		1416.5	-110.141	1416.5	-111.65
		1416.5	-111.65	1416.5	-111.65
				1416.5	-111.65
		1417.97	-110.513	1417.97	-112.488
		1417.97	-112.488	1417.97	-112.488
				1417.97	-112.488
		1419.43	-111.982	1419.43	-114.484
		1419.43	-114.484	1419.43	-114.484
				1419.43	-114.484
				1420.9	-112.849
				1420.9	-112.849
				1420.9	-112.849
		1422.36	-111.548	1422.36	-112.991
		1422.36	-112.991	1422.36	-112.991
				1422.36	-112.991
				1423.83	-105.884
				1423.83	-105.884
				1423.83	-105.884
				1425.29	-110.96
				1425.29	-110.96
				1425.29	-110.96
		1426.76	-111.158	1426.76	-113.032
		1426.76	-113.032	1426.76	-113.032
				1426.76	-113.032
		1428.22	-109.416	1428.22	-113.945
		1428.22	-113.945	1428.22	-113.945
				1428.22	-113.945
		1429.69	-106.13	1429.69	-109.121
		1429.69	-109.121	1429.69	-109.121
				1429.69	-109.121
		1431.15	-106.096	1431.15	-115.015
		1431.15	-115.015	1431.15	-115.015
				1431.15	-115.015
		1432.62	-104.981	1432.62	-112.982
		1432.62	-112.982	1432.62	-112.982
				1432.62	-112.982
				1434.08	-108.591
				1434.08	-108.591
				1434.08	-108.591
		1435.55	-109.15	1435.55	-112.668
		1435.55	-112.668	1435.55	-112.668
				1435.55	-112.668
		1437.01	-106.463	1437.01	-110.576
		1437.01	-110.576	1437.01	-110.576
				1437.01	-110.576
		1438.48	-114.495	1438.48	-122.553
		1438.48	-122.553	1438.48	-122.553
				1438.48	-122.553
		1439.94	-109.472	1439.94	-116.14
		1439.94	-116.14	1439.94	-116.14
				1439.94	-116.14
		1441.41	-105.175	1441.41	-124.525
		1441.41	-124.525	1441.41	-124.525
				1441.41	-124.525
		1442.87	-107.882	1442.87	-120.748
		1442.87	-120.748	1442.87	-120.748
				1442.87	-120.748
				1444.34	-108.36
				1444.34	-108.36
				1444.34	-108.36
1445.8	-58.1637			1445.8	-118.361
1445.8	-118.361			1445.8	-118.361
				1445.8	-118.361
				1447.27	-106.375
				1447.27	-106.375
				1447.27	-106.375
				1448.73	-120.369
				1448.73	-120.369
				1448.73	-120.369
		1450.2	-108.523	1450.2	-117.765
		1450.2	-117.765	1450.2	-117.765
				1450.2	-117.765
		1451.66	-105.36	1451.66	-116.001
		1451.66	-116.001	1451.66	-116.001
				1451.66	-116.001
		1453.13	-106.709	1453.13	-116.479
		1453.13	-116.479	1453.13	-116.479
				1453.13	-116.479
				1454.59	-116.313
				1454.59	-116.313
				1454.59	-116.313
		1456.05	-104.026	1456.05	-117.197
		1456.05	-117.197	1456.05	-117.197
				1456.05	-117.197
		1457.52	-112.86	1457.52	-122.187
		1457.52	-122.187	1457.52	-122.187
				1457.52	-122.187
		1458.98	-111.318	1458.98	-116.291
		1458.98	-116.291	1458.98	-116.291
				1458.98	-116.291
		1460.45	-100.291	1460.45	-116.833
		1460.45	-116.833	1460.45	-116.833
				1460.45	-116.833
		1461.91	-111.399	1461.91	-112.712
		1461.91	-112.712	1461.91	-112.712
				1461.91	-112.712
		1463.38	-109.21	1463.38	-115.938
		1463.38	-115.938	1463.38	-115.938
				1463.38	-115.938
		1464.84	-105.034	1464.84	-109.817
		1464.84	-109.817	1464.84	-109.817
				1464.84	-109.817
		1466.31	-103.772	1466.31	-108.411
		1466.31	-108.411	1466.31	-108.411
				1466.31	-108.411
				1467.77	-112.479
				1467.77	-112.479
				1467.77	-112.479
				1469.24	-108.002
				1469.24	-108.002
				1469.24	-108.002
				1470.7	-106.833
				1470.7	-106.833
				1470.7	-106.833
				1472.17	-115.069
				1472.17	-115.069
				1472.17	-115.069
		1473.63	-105.287	1473.63	-110.303
		1473.63	-110.303	1473.63	-110.303
				1473.63	-110.303
				1475.1	-110.099
				1475.1	-110.099
				1475.1	-110.099
				1476.56	-108.627
				1476.56	-108.627
				1476.56	-108.627
		1478.03	-112.628	1478.03	-117.034
		1478.03	-117.034	1478.03	-117.034
				1478.03	-117.034
		1479.49	-109.363	1479.49	-117.117
		1479.49	-117.117	1479.49	-117.117
				1479.49	-117.117
		1480.96	-102.998	1480.96	-110.167
		1480.96	-110.167	1480.96	-110.167
				1480.96	-110.167
				1482.42	-115.162
				1482.42	-115.162
				1482.42	-115.162
		1483.89	-112.866	1483.89	-117.149
		1483.89	-117.149	1483.89	-117.149
				1483.89	-117.149
		1485.35	-107.328	1485.35	-113.447
		1485.35	-113.447	1485.35	-113.447
				1485.35	-113.447
				1486.82	-113.505
				1486.82	-113.505
				1486.82	-113.505
1488.28	-58.2885			1488.28	-122.659
1488.28	-122.659			1488.28	-122.659
				1488.28	-122.659
		1489.75	-106.79	1489.75	-107.932
		1489.75	-107.932	1489.75	-107.932
				1489.75	-107.932
		1491.21	-116.573	1491.21	-118.406
		1491.21	-118.406	1491.21	-118.406
				1491.21	-118.406
		1492.68	-105.727	1492.68	-121.525
		1492.68	-121.525	1492.68	-121.525
				1492.68	-121.525
		1494.14	-111.977	1494.14	-113.804
		1494.14	-113.804	1494.14	-113.804
				1494.14	-113.804
		1495.61	-108.564	1495.61	-109.964
		1495.61	-109.964	1495.61	-109.964
				1495.61	-109.964
				1497.07	-108.558
				1497.07	-108.558
				1497.07	-108.558
		1498.54	-105.398	1498.54	-114.172
		1498.54	-114.172	1498.54	-114.172
				1498.54	-114.172
		1500	-107.335	1500	-111.226
		1500	-111.226	1500	-111.226
				1500	-111.226
		1501.46	-105.304	1501.46	-110.884
		1501.46	-110.884	1501.46	-110.884
				1501.46	-110.884
		1502.93	-114.303	1502.93	-117.501
		1502.93	-117.501	1502.93	-117.501
				1502.93	-117.501
		1504.39	-107.968	1504.39	-115.069
		1504.39	-115.069	1504.39	-115.069
				1504.39	-115.069
		1505.86	-111.391	1505.86	-114.874
		1505.86	-114.874	1505.86	-114.874
				1505.86	-114.874
		1507.32	-105.202	1507.32	-111.188
		1507.32	-111.188	1507.32	-111.188
				1507.32	-111.188
		1508.79	-107.245	1508.79	-116.906
		1508.79	-116.906	1508.79	-116.906
				1508.79	-116.906
		1510.25	-102.774	1510.25	-116.5
		1510.25	-116.5	1510.25	-116.5
				1510.25	-116.5
		1511.72	-108.93	1511.72	-120.414
		1511.72	-120.414	1511.72	-120.414
				1511.72	-120.414
		1513.18	-103.892	1513.18	-112.985
		1513.18	-112.985	1513.18	-112.985
				1513.18	-112.985
				1514.65	-104.596
				1514.65	-104.596
				1514.65	-104.596
		1516.11	-106.102	1516.11	-110.886
		1516.11	-110.886	1516.11	-110.886
				1516.11	-110.886
		1517.58	-106.579	1517.58	-119.323
		1517.58	-119.323	1517.58	-119.323
				1517.58	-119.323
				1519.04	-109.451
				1519.04	-109.451
				1519.04	-109.451
		1520.51	-99.096	1520.51	-116.008
		1520.51	-116.008	1520.51	-116.008
				1520.51	-116.008
		1521.97	-101.067	1521.97	-107.623
		1521.97	-107.623	1521.97	-107.623
				1521.97	-107.623
		1523.44	-106.937	1523.44	-113.62
		1523.44	-113.62	1523.44	-113.62
				1523.44	-113.62
		1524.9	-105.304	1524.9	-113.343
		1524.9	-113.343	1524.9	-113.343
				1524.9	-113.343
				1526.37	-107.64
				1526.37	-107.64
				1526.37	-107.64
		1527.83	-112.006	1527.83	-115.533
		1527.83	-115.533	1527.83	-115.533
				1527.83	-115.533
		1529.3	-110.548	1529.3	-121.77
		1529.3	-121.77	1529.3	-121.77
				1529.3	-121.77
				1530.76	-110.36
				1530.76	-110.36
				1530.76	-110.36
1532.23	-58.3829			1532.23	-109.168
1532.23	-109.168			1532.23	-109.168
				1532.23	-109.168
				1533.69	-113.594
				1533.69	-113.594
				1533.69	-113.594
		1535.16	-108.283	1535.16	-124.755
		1535.16	-124.755	1535.16	-124.755
				1535.16	-124.755
		1536.62	-107.484	1536.62	-113.603
		1536.62	-113.603	1536.62	-113.603
				1536.62	-113.603
		1538.09	-107.253	1538.09	-111.808
		1538.09	-111.808	1538.09	-111.808
				1538.09	-111.808
		1539.55	-106.191	1539.55	-112.303
		1539.55	-112.303	1539.55	-112.303
				1539.55	-112.303
				1541.02	-111.281
				1541.02	-111.281
				1541.02	-111.281
		1542.48	-114.672	1542.48	-117.597
		1542.48	-117.597	1542.48	-117.597
				1542.48	-117.597
				1543.95	-111.619
				1543.95	-111.619
				1543.95	-111.619
		1545.41	-113.426	1545.41	-119.671
		1545.41	-119.671	1545.41	-119.671
				1545.41	-119.671
				1546.88	-109.532
				1546.88	-109.532
				1546.88	-109.532
		1548.34	-104.379	1548.34	-121.885
		1548.34	-121.885	1548.34	-121.885
				1548.34	-121.885
		1549.8	-109.086	1549.8	-115.288
		1549.8	-115.288	1549.8	-115.288
				1549.8	-115.288
		1551.27	-109.93	1551.27	-113.853
		1551.27	-113.853	1551.27	-113.853
				1551.27	-113.853
		1552.73	-102.215	1552.73	-115.952
		1552.73	-115.952	1552.73	-115.952
				1552.73	-115.952
		1554.2	-104.131	1554.2	-119.637
		1554.2	-119.637	1554.2	-119.637
				1554.2	-119.637
		1555.66	-101.667	1555.66	-124.021
		1555.66	-124.021	1555.66	-124.021
				1555.66	-124.021
		1557.13	-105.359	1557.13	-111.746
		1557.13	-111.746	1557.13	-111.746
				1557.13	-111.746
		1558.59	-111.369	1558.59	-115.023
		1558.59	-115.023	1558.59	-115.023
				1558.59	-115.023
				1560.06	-109.881
				1560.06	-109.881
				1560.06	-109.881
		1561.52	-103.798	1561.52	-117.808
		1561.52	-117.808	1561.52	-117.808
				1561.52	-117.808
		1562.99	-104.103	1562.99	-109.934
		1562.99	-109.934	1562.99	-109.934
				1562.99	-109.934
		1564.45	-108.03	1564.45	-113.394
		1564.45	-113.394	1564.45	-113.394
				1564.45	-113.394
		1565.92	-108.717	1565.92	-116.157
		1565.92	-116.157	1565.92	-116.157
				1565.92	-116.157
				1567.38	-104.904
				1567.38	-104.904
				1567.38	-104.904
				1568.85	-111.526
				1568.85	-111.526
				1568.85	-111.526
		1570.31	-111.269	1570.31	-117.252
		1570.31	-117.252	1570.31	-117.252
				1570.31	-117.252
		1571.78	-106.789	1571.78	-116.466
		1571.78	-116.466	1571.78	-116.466
				1571.78	-116.466
		1573.24	-108.437	1573.24	-117.707
		1573.24	-117.707	1573.24	-117.707
				1573.24	-117.707
		1574.71	-107.806	1574.71	-113.379
		1574.71	-113.379	1574.71	-113.379
				1574.71	-113.379
1576.17	-58.4298			1576.17	-109.618
1576.17	-109.618			1576.17	-109.618
				1576.17	-109.618
		1577.64	-106.121	1577.64	-112.608
		1577.64	-112.608	1577.64	-112.608
				1577.64	-112.608
		1579.1	-105.287	1579.1	-113.554
		1579.1	-113.554	1579.1	-113.554
				1579.1	-113.554
		1580.57	-103.078	1580.57	-124.216
		1580.57	-124.216	1580.57	-124.216
				1580.57	-124.216
				1582.03	-105.997
				1582.03	-105.997
				1582.03	-105.997
		1583.5	-106.223	1583.5	-118.132
		1583.5	-118.132	1583.5	-118.132
				1583.5	-118.132
		1584.96	-105.815	1584.96	-120.731
		1584.96	-120.731	1584.96	-120.731
				1584.96	-120.731
		1586.43	-109.784	1586.43	-114.543
		1586.43	-114.543	1586.43	-114.543
				1586.43	-114.543
		1587.89	-106.924	1587.89	-117.655
		1587.89	-117.655	1587.89	-117.655
				1587.89	-117.655
		1589.36	-109.912	1589.36	-113.888
		1589.36	-113.888	1589.36	-113.888
				1589.36	-113.888
		1590.82	-103.967	1590.82	-112.638
		1590.82	-112.638	1590.82	-112.638
				1590.82	-112.638
		1592.29	-105.898	1592.29	-111.507
		1592.29	-111.507	1592.29	-111.507
				1592.29	-111.507
				1593.75	-104.166
				1593.75	-104.166
				1593.75	-104.166
				1595.21	-106.673
				1595.21	-106.673
				1595.21	-106.673
		1596.68	-102.926	1596.68	-118.056
		1596.68	-118.056	1596.68	-118.056
				1596.68	-118.056
				1598.14	-114.534
				1598.14	-114.534
				1598.14	-114.534
				1599.61	-107.792
				1599.61	-107.792
				1599.61	-107.792
		1601.07	-105.779	1601.07	-115.006
		1601.07	-115.006	1601.07	-115.006
				1601.07	-115.006
		1602.54	-108.309	1602.54	-114.719
		1602.54	-114.719	1602.54	-114.719
				1602.54	-114.719
		1604	-104.567	1604	-116.753
		1604	-116.753	1604	-116.753
				1604	-116.753
		1605.47	-105.779	1605.47	-114.679
		1605.47	-114.679	1605.47	-114.679
				1605.47	-114.679
		1606.93	-106.021	1606.93	-112.714
		1606.93	-112.714	1606.93	-112.714
				1606.93	-112.714
		1608.4	-106.646	1608.4	-114.723
		1608.4	-114.723	1608.4	-114.723
				1608.4	-114.723
		1609.86	-111.124	1609.86	-123.257
		1609.86	-123.257	1609.86	-123.257
				1609.86	-123.257
		1611.33	-116.852	1611.33	-119.953
		1611.33	-119.953	1611.33	-119.953
				1611.33	-119.953
		1612.79	-104.987	1612.79	-113.449
		1612.79	-113.449	1612.79	-113.449
				1612.79	-113.449
		1614.26	-107.856	1614.26	-110.268
		1614.26	-110.268	1614.26	-110.268
				1614.26	-110.268
		1615.72	-115.52	1615.72	-117.427
		1615.72	-117.427	1615.72	-117.427
				1615.72	-117.427
		1617.19	-105.816	1617.19	-108.545
		1617.19	-108.545	1617.19	-108.545
				1617.19	-108.545
				1618.65	-111.77
				1618.65	-111.77
				1618.65	-111.77
		1620.12	-106.135	1620.12	-108.925
		1620.12	-108.925	1620.12	-108.925
				1620.12	-108.925
		1621.58	-111.585	1621.58	-115.038
		1621.58	-115.038	1621.58	-115.038
				1621.58	-115.038
1623.05	-58.5752			1623.05	-112.981
1623.05	-112.981			1623.05	-112.981
				1623.05	-112.981
		1624.51	-105.87	1624.51	-119.464
		1624.51	-119.464	1624.51	-119.464
				1624.51	-119.464
		1625.98	-107.227	1625.98	-113.167
		1625.98	-113.167	1625.98	-113.167
				1625.98	-113.167
		1627.44	-107.499	1627.44	-108.567
		1627.44	-108.567	1627.44	-108.567
				1627.44	-108.567
		1628.91	-108.635	1628.91	-109.661
		1628.91	-109.661	1628.91	-109.661
				1628.91	-109.661
				1630.37	-110.313
				1630.37	-110.313
				1630.37	-110.313
				1631.84	-111.945
				1631.84	-111.945
				1631.84	-111.945
		1633.3	-108.932	1633.3	-112.625
		1633.3	-112.625	1633.3	-112.625
				1633.3	-112.625
				1634.77	-110.341
				1634.77	-110.341
				1634.77	-110.341
		1636.23	-109.451	1636.23	-113.12
		1636.23	-113.12	1636.23	-113.12
				1636.23	-113.12
				1637.7	-112.798
				1637.7	-112.798
				1637.7	-112.798
		1639.16	-106.801	1639.16	-120.265
		1639.16	-120.265	1639.16	-120.265
				1639.16	-120.265
				1640.63	-108.909
				1640.63	-108.909
				1640.63	-108.909
		1642.09	-102.008	1642.09	-112.359
		1642.09	-112.359	1642.09	-112.359
				1642.09	-112.359
		1643.55	-103.38	1643.55	-114.255
		1643.55	-114.255	1643.55	-114.255
				1643.55	-114.255
				1645.02	-107.325
				1645.02	-107.325
				1645.02	-107.325
				1646.48	-116.516
				1646.48	-116.516
				1646.48	-116.516
		1647.95	-111.694	1647.95	-114.534
		1647.95	-114.534	1647.95	-114.534
				1647.95	-114.534
				1649.41	-110.232
				1649.41	-110.232
				1649.41	-110.232
		1650.88	-112.477	1650.88	-114.604
		1650.88	-114.604	1650.88	-114.604
				1650.88	-114.604
				1652.34	-109.207
				1652.34	-109.207
				1652.34	-109.207
		1653.81	-113.895	1653.81	-117.262
		1653.81	-117.262	1653.81	-117.262
				1653.81	-117.262
				1655.27	-110.648
				1655.27	-110.648
				1655.27	-110.648
		1656.74	-108.923	1656.74	-111.344
		1656.74	-111.344	1656.74	-111.344
				1656.74	-111.344
		1658.2	-112.092	1658.2	-118.105
		1658.2	-118.105	1658.2	-118.105
				1658.2	-118.105
		1659.67	-113.668	1659.67	-114.739
		1659.67	-114.739	1659.67	-114.739
				1659.67	-114.739
		1661.13	-109.159	1661.13	-114.536
		1661.13	-114.536	1661.13	-114.536
				1661.13	-114.536
				1662.6	-115.062
				1662.6	-115.062
				1662.6	-115.062
		1664.06	-105.416	1664.06	-116.863
		1664.06	-116.863	1664.06	-116.863
				1664.06	-116.863
				1665.53	-109.404
				1665.53	-109.404
				1665.53	-109.404
		1666.99	-112.455	1666.99	-122.684
		1666.99	-122.684	1666.99	-122.684
				1666.99	-122.684
				1668.46	-110.384
				1668.46	-110.384
				1668.46	-110.384
1669.92	-58.7041			1669.92	-118.425
1669.92	-118.425			1669.92	-118.425
				1669.92	-118.425
		1671.39	-100.415	1671.39	-113.193
		1671.39	-113.193	1671.39	-113.193
				1671.39	-113.193
		1672.85	-108.181	1672.85	-111.983
		1672.85	-111.983	1672.85	-111.983
				1672.85	-111.983
		1674.32	-109.046	1674.32	-111.153
		1674.32	-111.153	1674.32	-111.153
				1674.32	-111.153
		1675.78	-106.842	1675.78	-113.351
		1675.78	-113.351	1675.78	-113.351
				1675.78	-113.351
				1677.25	-112.237
				1677.25	-112.237
				1677.25	-112.237
		1678.71	-111.183	1678.71	-112.8
		1678.71	-112.8	1678.71	-112.8
				1678.71	-112.8
		1680.18	-109.412	1680.18	-114.967
		1680.18	-114.967	1680.18	-114.967
				1680.18	-114.967
		1681.64	-106.56	1681.64	-117.776
		1681.64	-117.776	1681.64	-117.776
				1681.64	-117.776
		1683.11	-110.602	1683.11	-124.197
		1683.11	-124.197	1683.11	-124.197
				1683.11	-124.197
		1684.57	-105.115	1684.57	-118.254
		1684.57	-118.254	1684.57	-118.254
				1684.57	-118.254
		1686.04	-107.704	1686.04	-115.442
		1686.04	-115.442	1686.04	-115.442
				1686.04	-115.442
				1687.5	-110.395
				1687.5	-110.395
				1687.5	-110.395
				1688.96	-109.371
				1688.96	-109.371
				1688.96	-109.371
		1690.43	-107.714	1690.43	-113.64
		1690.43	-113.64	1690.43	-113.64
				1690.43	-113.64
		1691.89	-113.877	1691.89	-123.962
		1691.89	-123.962	1691.89	-123.962
				1691.89	-123.962
				1693.36	-110.829
				1693.36	-110.829
				1693.36	-110.829
				1694.82	-109.777
				1694.82	-109.777
				1694.82	-109.777
		1696.29	-110.821	1696.29	-114.987
		1696.29	-114.987	1696.29	-114.987
				1696.29	-114.987
		1697.75	-115.041	1697.75	-117.734
		1697.75	-117.734	1697.75	-117.734
				1697.75	-117.734
		1699.22	-108.134	1699.22	-117.276
		1699.22	-117.276	1699.22	-117.276
				1699.22	-117.276
		1700.68	-102.333	1700.68	-110.943
		1700.68	-110.943	1700.68	-110.943
				1700.68	-110.943
				1702.15	-110.892
				1702.15	-110.892
				1702.15	-110.892
		1703.61	-102.024	1703.61	-114.882
		1703.61	-114.882	1703.61	-114.882
				1703.61	-114.882
		1705.08	-111.956	1705.08	-115.468
		1705.08	-115.468	1705.08	-115.468
				1705.08	-115.468
				1706.54	-104.04
				1706.54	-104.04
				1706.54	-104.04
		1708.01	-105.336	1708.01	-107.676
		1708.01	-107.676	1708.01	-107.676
				1708.01	-107.676
		1709.47	-108.5	1709.47	-113.624
		1709.47	-113.624	1709.47	-113.624
				1709.47	-113.624
				1710.94	-107.877
				1710.94	-107.877
				1710.94	-107.877
		1712.4	-113.973	1712.4	-116.332
		1712.4	-116.332	1712.4	-116.332
				1712.4	-116.332
		1713.87	-112.25	1713.87	-114.185
		1713.87	-114.185	1713.87	-114.185
				1713.87	-114.185
				1715.33	-108.05
				1715.33	-108.05
				1715.33	-108.05
				1716.8	-114.448
				1716.8	-114.448
				1716.8	-114.448
				1718.26	-111.411
				1718.26	-111.411
				1718.26	-111.411
1719.73	-58.8632			1719.73	-105.475
1719.73	-105.475			1719.73	-105.475
				1719.73	-105.475
		1721.19	-107.839	1721.19	-109.528
		1721.19	-109.528	1721.19	-109.528
				1721.19	-109.528
				1722.66	-106.532
				1722.66	-106.532
				1722.66	-106.532
				1724.12	-105.015
				1724.12	-105.015
				1724.12	-105.015
		1725.59	-108.033	1725.59	-118
		1725.59	-118	1725.59	-118
				1725.59	-118
		1727.05	-106.477	1727.05	-122.147
		1727.05	-122.147	1727.05	-122.147
				1727.05	-122.147
		1728.52	-111.348	1728.52	-114.086
		1728.52	-114.086	1728.52	-114.086
				1728.52	-114.086
		1729.98	-132.245	1729.98	-135.682
		1729.98	-135.682	1729.98	-135.682
				1729.98	-135.682
		1731.45	-109.758	1731.45	-116.554
		1731.45	-116.554	1731.45	-116.554
				1731.45	-116.554
				1732.91	-115.629
				1732.91	-115.629
				1732.91	-115.629
		1734.38	-112.595	1734.38	-114.379
		1734.38	-114.379	1734.38	-114.379
				1734.38	-114.379
		1735.84	-104.251	1735.84	-113.413
		1735.84	-113.413	1735.84	-113.413
				1735.84	-113.413
		1737.3	-109.32	1737.3	-122.543
		1737.3	-122.543	1737.3	-122.543
				1737.3	-122.543
		1738.77	-106.286	1738.77	-134.387
		1738.77	-134.387	1738.77	-134.387
				1738.77	-134.387
		1740.23	-108.372	1740.23	-114.937
		1740.23	-114.937	1740.23	-114.937
				1740.23	-114.937
		1741.7	-116.054	1741.7	-118.361
		1741.7	-118.361	1741.7	-118.361
				1741.7	-118.361
		1743.16	-105.36	1743.16	-114.298
		1743.16	-114.298	1743.16	-114.298
				1743.16	-114.298
		1744.63	-105.726	1744.63	-114.583
		1744.63	-114.583	1744.63	-114.583
				1744.63	-114.583
				1746.09	-115.345
				1746.09	-115.345
				1746.09	-115.345
		1747.56	-111.08	1747.56	-117.797
		1747.56	-117.797	1747.56	-117.797
				1747.56	-117.797
				1749.02	-109.613
				1749.02	-109.613
				1749.02	-109.613
		1750.49	-108.112	1750.49	-109.554
		1750.49	-109.554	1750.49	-109.554
				1750.49	-109.554
				1751.95	-110.098
				1751.95	-110.098
				1751.95	-110.098
		1753.42	-108.294	1753.42	-109.791
		1753.42	-109.791	1753.42	-109.791
				1753.42	-109.791
				1754.88	-115.447
				1754.88	-115.447
				1754.88	-115.447
				1756.35	-114.269
				1756.35	-114.269
				1756.35	-114.269
		1757.81	-116.123	1757.81	-124.46
		1757.81	-124.46	1757.81	-124.46
				1757.81	-124.46
		1759.28	-104.688	1759.28	-112.741
		1759.28	-112.741	1759.28	-112.741
				1759.28	-112.741
		1760.74	-106.161	1760.74	-119.133
		1760.74	-119.133	1760.74	-119.133
				1760.74	-119.133
		1762.21	-110.61	1762.21	-117.366
		1762.21	-117.366	1762.21	-117.366
				1762.21	-117.366
				1763.67	-108.706
				1763.67	-108.706
				1763.67	-108.706
		1765.14	-109.032	1765.14	-114.207
		1765.14	-114.207	1765.14	-114.207
				1765.14	-114.207
		1766.6	-118.959	1766.6	-122.282
		1766.6	-122.282	1766.6	-122.282
				1766.6	-122.282
		1768.07	-104.506	1768.07	-107.98
		1768.07	-107.98	1768.07	-107.98
				1768.07	-107.98
1769.53	-58.8957			1769.53	-110.586
1769.53	-110.586			1769.53	-110.586
				1769.53	-110.586
		1771	-106.815	1771	-116.834
		1771	-116.834	1771	-116.834
				1771	-116.834
				1772.46	-107.481
				1772.46	-107.481
				1772.46	-107.481
		1773.93	-113.783	1773.93	-120.345
		1773.93	-120.345	1773.93	-120.345
				1773.93	-120.345
		1775.39	-108.255	1775.39	-115.431
		1775.39	-115.431	1775.39	-115.431
				1775.39	-115.431
		1776.86	-105.043	1776.86	-107.463
		1776.86	-107.463	1776.86	-107.463
				1776.86	-107.463
		1778.32	-103.318	1778.32	-110.048
		1778.32	-110.048	1778.32	-110.048
				1778.32	-110.048
		1779.79	-107.691	1779.79	-110.269
		1779.79	-110.269	1779.79	-110.269
				1779.79	-110.269
		1781.25	-114.014	1781.25	-118.185
		1781.25	-118.185	1781.25	-118.185
				1781.25	-118.185
		1782.71	-112.498	1782.71	-121.89
		1782.71	-121.89	1782.71	-121.89
				1782.71	-121.89
		1784.18	-109.737	1784.18	-111.338
		1784.18	-111.338	1784.18	-111.338
				1784.18	-111.338
				1785.64	-107.994
				1785.64	-107.994
				1785.64	-107.994
				1787.11	-106.123
				1787.11	-106.123
				1787.11	-106.123
		1788.57	-108.676	1788.57	-109.946
		1788.57	-109.946	1788.57	-109.946
				1788.57	-109.946
				1790.04	-108.379
				1790.04	-108.379
				1790.04	-108.379
		1791.5	-107.511	1791.5	-116.64
		1791.5	-116.64	1791.5	-116.64
				1791.5	-116.64
		1792.97	-110.301	1792.97	-112.556
		1792.97	-112.556	1792.97	-112.556
				1792.97	-112.556
		1794.43	-108.725	1794.43	-111.062
		1794.43	-111.062	1794.43	-111.062
				1794.43	-111.062
				1795.9	-110.841
				1795.9	-110.841
				1795.9	-110.841
				1797.36	-106.742
				1797.36	-106.742
				1797.36	-106.742
		1798.83	-114.212	1798.83	-117.668
		1798.83	-117.668	1798.83	-117.668
				1798.83	-117.668
				1800.29	-115.003
				1800.29	-115.003
				1800.29	-115.003
				1801.76	-111.107
				1801.76	-111.107
				1801.76	-111.107
		1803.22	-104.672	1803.22	-111.545
		1803.22	-111.545	1803.22	-111.545
				1803.22	-111.545
		1804.69	-104.39	1804.69	-115.194
		1804.69	-115.194	1804.69	-115.194
				1804.69	-115.194
		1806.15	-104.264	1806.15	-119.927
		1806.15	-119.927	1806.15	-119.927
				1806.15	-119.927
		1807.62	-113.565	1807.62	-114.961
		1807.62	-114.961	1807.62	-114.961
				1807.62	-114.961
		1809.08	-110.557	1809.08	-118.731
		1809.08	-118.731	1809.08	-118.731
				1809.08	-118.731
				1810.55	-111.128
				1810.55	-111.128
				1810.55	-111.128
				1812.01	-105.58
				1812.01	-105.58
				1812.01	-105.58
		1813.48	-107.554	1813.48	-111.258
		1813.48	-111.258	1813.48	-111.258
				1813.48	-111.258
				1814.94	-112.109
				1814.94	-112.109
				1814.94	-112.109
				1816.41	-109.458
				1816.41	-109.458
				1816.41	-109.458
		1817.87	-116.974	1817.87	-125.17
		1817.87	-125.17	1817.87	-125.17
				1817.87	-125.17
				1819.34	-121.837
				1819.34	-121.837
				1819.34	-121.837
		1820.8	-115.599	1820.8	-129.085
		1820.8	-129.085	1820.8	-129.085
				1820.8	-129.085
1822.27	-59.0299			1822.27	-113.878
1822.27	-113.878			1822.27	-113.878
				1822.27	-113.878
				1823.73	-112.043
				1823.73	-112.043
				1823.73	-112.043
				1825.2	-108.752
				1825.2	-108.752
				1825.2	-108.752
		1826.66	-107.902	1826.66	-121.412
		1826.66	-121.412	1826.66	-121.412
				1826.66	-121.412
		1828.13	-107.165	1828.13	-116.131
		1828.13	-116.131	1828.13	-116.131
				1828.13	-116.131
		1829.59	-107.022	1829.59	-116.807
		1829.59	-116.807	1829.59	-116.807
				1829.59	-116.807
				1831.05	-112.007
				1831.05	-112.007
				1831.05	-112.007
		1832.52	-110.815	1832.52	-113.126
		1832.52	-113.126	1832.52	-113.126
				1832.52	-113.126
				1833.98	-112.669
				1833.98	-112.669
				1833.98	-112.669
		1835.45	-106.047	1835.45	-110.652
		1835.45	-110.652	1835.45	-110.652
				1835.45	-110.652
				1836.91	-116.389
				1836.91	-116.389
				1836.91	-116.389
		1838.38	-109.42	1838.38	-121.846
		1838.38	-121.846	1838.38	-121.846
				1838.38	-121.846
				1839.84	-115.247
				1839.84	-115.247
				1839.84	-115.247
				1841.31	-107.761
				1841.31	-107.761
				1841.31	-107.761
		1842.77	-106.659	1842.77	-124.543
		1842.77	-124.543	1842.77	-124.543
				1842.77	-124.543
		1844.24	-108.456	1844.24	-121.617
		1844.24	-121.617	1844.24	-121.617
				1844.24	-121.617
		1845.7	-107.89	1845.7	-116.74
		1845.7	-116.74	1845.7	-116.74
				1845.7	-116.74
				1847.17	-112.793
				1847.17	-112.793
				1847.17	-112.793
		1848.63	-104.783	1848.63	-110.813
		1848.63	-110.813	1848.63	-110.813
				1848.63	-110.813
		1850.1	-111.665	1850.1	-112.787
		1850.1	-112.787	1850.1	-112.787
				1850.1	-112.787
		1851.56	-104.257	1851.56	-111.951
		1851.56	-111.951	1851.56	-111.951
				1851.56	-111.951
		1853.03	-110.469	1853.03	-113.066
		1853.03	-113.066	1853.03	-113.066
				1853.03	-113.066
				1854.49	-110.459
				1854.49	-110.459
				1854.49	-110.459
		1855.96	-108.625	1855.96	-117.359
		1855.96	-117.359	1855.96	-117.359
				1855.96	-117.359
				1857.42	-110.592
				1857.42	-110.592
				1857.42	-110.592
		1858.89	-109.76	1858.89	-119.956
		1858.89	-119.956	1858.89	-119.956
				1858.89	-119.956
		1860.35	-110.728	1860.35	-116.454
		1860.35	-116.454	1860.35	-116.454
				1860.35	-116.454
				1861.82	-111.341
				1861.82	-111.341
				1861.82	-111.341
				1863.28	-113.17
				1863.28	-113.17
				1863.28	-113.17
		1864.75	-109.109	1864.75	-110.461
		1864.75	-110.461	1864.75	-110.461
				1864.75	-110.461
				1866.21	-109.648
				1866.21	-109.648
				1866.21	-109.648
		1867.68	-106.598	1867.68	-110.921
		1867.68	-110.921	1867.68	-110.921
				1867.68	-110.921
		1869.14	-110.044	1869.14	-117.442
		1869.14	-117.442	1869.14	-117.442
				1869.14	-117.442
		1870.61	-107.861	1870.61	-120.075
		1870.61	-120.075	1870.61	-120.075
				1870.61	-120.075
				1872.07	-108.968
				1872.07	-108.968
				1872.07	-108.968
				1873.54	-107.889
				1873.54	-107.889
				1873.54	-107.889
1875	-59.1095			1875	-122.215
1875	-122.215			1875	-122.215
				1875	-122.215
		1876.46	-107.433	1876.46	-111.225
		1876.46	-111.225	1876.46	-111.225
				1876.46	-111.225
				1877.93	-111.903
				1877.93	-111.903
				1877.93	-111.903
		1879.39	-105.937	1879.39	-113.827
		1879.39	-113.827	1879.39	-113.827
				1879.39	-113.827
				1880.86	-110.901
				1880.86	-110.901
				1880.86	-110.901
				1882.32	-118.895
				1882.32	-118.895
				1882.32	-118.895
		1883.79	-106.86	1883.79	-112.182
		1883.79	-112.182	1883.79	-112.182
				1883.79	-112.182
				1885.25	-107.255
				1885.25	-107.255
				1885.25	-107.255
				1886.72	-107.879
				1886.72	-107.879
				1886.72	-107.879
		1888.18	-107.32	1888.18	-115.837
		1888.18	-115.837	1888.18	-115.837
				1888.18	-115.837
		1889.65	-104.316	1889.65	-118.563
		1889.65	-118.563	1889.65	-118.563
				1889.65	-118.563
		1891.11	-111.035	1891.11	-129.906
		1891.11	-129.906	1891.11	-129.906
				1891.11	-129.906
		1892.58	-106.335	1892.58	-122.852
		1892.58	-122.852	1892.58	-122.852
				1892.58	-122.852
				1894.04	-118.655
				1894.04	-118.655
				1894.04	-118.655
		1895.51	-114.052	1895.51	-118.216
		1895.51	-118.216	1895.51	-118.216
				1895.51	-118.216
				1896.97	-112.135
				1896.97	-112.135
				1896.97	-112.135
		1898.44	-107.667	1898.44	-109.94
		1898.44	-109.94	1898.44	-109.94
				1898.44	-109.94
		1899.9	-115.582	1899.9	-126.104
		1899.9	-126.104	1899.9	-126.104
				1899.9	-126.104
				1901.37	-113.587
				1901.37	-113.587
				1901.37	-113.587
				1902.83	-106.106
				1902.83	-106.106
				1902.83	-106.106
		1904.3	-115.921	1904.3	-117.09
		1904.3	-117.09	1904.3	-117.09
				1904.3	-117.09
		1905.76	-105.023	1905.76	-109.174
		1905.76	-109.174	1905.76	-109.174
				1905.76	-109.174
		1907.23	-103.921	1907.23	-117.746
		1907.23	-117.746	1907.23	-117.746
				1907.23	-117.746
				1908.69	-109.908
				1908.69	-109.908
				1908.69	-109.908
				1910.16	-118.575
				1910.16	-118.575
				1910.16	-118.575
				1911.62	-123.883
				1911.62	-123.883
				1911.62	-123.883
				1913.09	-109.995
				1913.09	-109.995
				1913.09	-109.995
		1914.55	-112.087	1914.55	-118.19
		1914.55	-118.19	1914.55	-118.19
				1914.55	-118.19
				1916.02	-110.429
				1916.02	-110.429
				1916.02	-110.429
		1917.48	-109.022	1917.48	-110.205
		1917.48	-110.205	1917.48	-110.205
				1917.48	-110.205
				1918.95	-106.603
				1918.95	-106.603
				1918.95	-106.603
				1920.41	-109.418
				1920.41	-109.418
				1920.41	-109.418
		1921.88	-106.166	1921.88	-120.251
		1921.88	-120.251	1921.88	-120.251
				1921.88	-120.251
				1923.34	-114.849
				1923.34	-114.849
				1923.34	-114.849
				1924.8	-110.029
				1924.8	-110.029
				1924.8	-110.029
		1926.27	-112.369	1926.27	-117
		1926.27	-117	1926.27	-117
				1926.27	-117
		1927.73	-118.805	1927.73	-130.245
		1927.73	-130.245	1927.73	-130.245
				1927.73	-130.245
		1929.2	-111.207	1929.2	-121.173
		1929.2	-121.173	1929.2	-121.173
				1929.2	-121.173
1930.66	-59.1976			1930.66	-101.794
1930.66	-101.794			1930.66	-101.794
				1930.66	-101.794
		1932.13	-107.576	1932.13	-116.562
		1932.13	-116.562	1932.13	-116.562
				1932.13	-116.562
				1933.59	-109.573
				1933.59	-109.573
				1933.59	-109.573
		1935.06	-112.473	1935.06	-116.534
		1935.06	-116.534	1935.06	-116.534
				1935.06	-116.534
				1936.52	-108.829
				1936.52	-108.829
				1936.52	-108.829
				1937.99	-112.85
				1937.99	-112.85
				1937.99	-112.85
				1939.45	-112.554
				1939.45	-112.554
				1939.45	-112.554
		1940.92	-106.736	1940.92	-118.719
		1940.92	-118.719	1940.92	-118.719
				1940.92	-118.719
				1942.38	-119.446
				1942.38	-119.446
				1942.38	-119.446
		1943.85	-109.128	1943.85	-120.504
		1943.85	-120.504	1943.85	-120.504
				1943.85	-120.504
		1945.31	-108.501	1945.31	-121.851
		1945.31	-121.851	1945.31	-121.851
				1945.31	-121.851
				1946.78	-107.465
				1946.78	-107.465
				1946.78	-107.465
		1948.24	-110.955	1948.24	-114.658
		1948.24	-114.658	1948.24	-114.658
				1948.24	-114.658
		1949.71	-114.781	1949.71	-119.675
		1949.71	-119.675	1949.71	-119.675
				1949.71	-119.675
				1951.17	-105.322
				1951.17	-105.322
				1951.17	-105.322
		1952.64	-108.161	1952.64	-117.556
		1952.64	-117.556	1952.64	-117.556
				1952.64	-117.556
				1954.1	-115.297
				1954.1	-115.297
				1954.1	-115.297
		1955.57	-105.7	1955.57	-110.141
		1955.57	-110.141	1955.57	-110.141
				1955.57	-110.141
		1957.03	-108.909	1957.03	-110.854
		1957.03	-110.854	1957.03	-110.854
				1957.03	-110.854
				1958.5	-112.642
				1958.5	-112.642
				1958.5	-112.642
				1959.96	-111.944
				1959.96	-111.944
				1959.96	-111.944
		1961.43	-113.663	1961.43	-119.19
		1961.43	-119.19	1961.43	-119.19
				1961.43	-119.19
				1962.89	-106.939
				1962.89	-106.939
				1962.89	-106.939
		1964.36	-112.756	1964.36	-118.014
		1964.36	-118.014	1964.36	-118.014
				1964.36	-118.014
				1965.82	-115.7
				1965.82	-115.7
				1965.82	-115.7
		1967.29	-113.41	1967.29	-117.327
		1967.29	-117.327	1967.29	-117.327
				1967.29	-117.327
				1968.75	-108.951
				1968.75	-108.951
				1968.75	-108.951
		1970.21	-107.133	1970.21	-108.951
		1970.21	-108.951	1970.21	-108.951
				1970.21	-108.951
				1971.68	-111.471
				1971.68	-111.471
				1971.68	-111.471
				1973.14	-109.152
				1973.14	-109.152
				1973.14	-109.152
		1974.61	-105.163	1974.61	-118.495
		1974.61	-118.495	1974.61	-118.495
				1974.61	-118.495
				1976.07	-106.557
				1976.07	-106.557
				1976.07	-106.557
				1977.54	-107.025
				1977.54	-107.025
				1977.54	-107.025
		1979	-111.623	1979	-118.05
		1979	-118.05	1979	-118.05
				1979	-118.05
				1980.47	-113.173
				1980.47	-113.173
				1980.47	-113.173
				1981.93	-109.818
				1981.93	-109.818
				1981.93	-109.818
		1983.4	-106.988	1983.4	-110.787
		1983.4	-110.787	1983.4	-110.787
				1983.4	-110.787
		1984.86	-107.876	1984.86	-111.884
		1984.86	-111.884	1984.86	-111.884
				1984.86	-111.884
1986.33	-59.3026			1986.33	-113.476
1986.33	-113.476			1986.33	-113.476
				1986.33	-113.476
				1987.79	-112.604
				1987.79	-112.604
				1987.79	-112.604
		1989.26	-108.306	1989.26	-117.079
		1989.26	-117.079	1989.26	-117.079
				1989.26	-117.079
				1990.72	-114.064
				1990.72	-114.064
				1990.72	-114.064
		1992.19	-108.881	1992.19	-115.004
		1992.19	-115.004	1992.19	-115.004
				1992.19	-115.004
				1993.65	-106.542
				1993.65	-106.542
				1993.65	-106.542
		1995.12	-107.686	1995.12	-119.902
		1995.12	-119.902	1995.12	-119.902
				1995.12	-119.902
		1996.58	-109.073	1996.58	-115.306
		1996.58	-115.306	1996.58	-115.306
				1996.58	-115.306
				1998.05	-108.587
				1998.05	-108.587
				1998.05	-108.587
		1999.51	-111.366	1999.51	-113.01
		1999.51	-113.01	1999.51	-113.01
				1999.51	-113.01
		2000.98	-115.042	2000.98	-118.062
		2000.98	-118.062	2000.98	-118.062
				2000.98	-118.062
		2002.44	-105.027	2002.44	-130.31
		2002.44	-130.31	2002.44	-130.31
				2002.44	-130.31
		2003.91	-113.534	2003.91	-123.74
		2003.91	-123.74	2003.91	-123.74
				2003.91	-123.74
		2005.37	-109.784	2005.37	-112.291
		2005.37	-112.291	2005.37	-112.291
				2005.37	-112.291
				2006.84	-108.138
				2006.84	-108.138
				2006.84	-108.138
		2008.3	-105.324	2008.3	-118.694
		2008.3	-118.694	2008.3	-118.694
				2008.3	-118.694
		2009.77	-106.518	2009.77	-115.146
		2009.77	-115.146	2009.77	-115.146
				2009.77	-115.146
				2011.23	-105.316
				2011.23	-105.316
				2011.23	-105.316
		2012.7	-109.255	2012.7	-118.665
		2012.7	-118.665	2012.7	-118.665
				2012.7	-118.665
		2014.16	-117.436	2014.16	-122.25
		2014.16	-122.25	2014.16	-122.25
				2014.16	-122.25
		2015.63	-102.983	2015.63	-115.854
		2015.63	-115.854	2015.63	-115.854
				2015.63	-115.854
		2017.09	-109.761	2017.09	-115.354
		2017.09	-115.354	2017.09	-115.354
				2017.09	-115.354
		2018.55	-107.304	2018.55	-114.432
		2018.55	-114.432	2018.55	-114.432
				2018.55	-114.432
		2020.02	-109.453	2020.02	-114.074
		2020.02	-114.074	2020.02	-114.074
				2020.02	-114.074
				2021.48	-110.492
				2021.48	-110.492
				2021.48	-110.492
				2022.95	-120.108
				2022.95	-120.108
				2022.95	-120.108
		2024.41	-110.125	2024.41	-115.225
		2024.41	-115.225	2024.41	-115.225
				2024.41	-115.225
		2025.88	-118.925	2025.88	-125.958
		2025.88	-125.958	2025.88	-125.958
				2025.88	-125.958
		2027.34	-110.948	2027.34	-118.472
		2027.34	-118.472	2027.34	-118.472
				2027.34	-118.472
		2028.81	-109.421	2028.81	-110.72
		2028.81	-110.72	2028.81	-110.72
				2028.81	-110.72
		2030.27	-109.424	2030.27	-115.389
		2030.27	-115.389	2030.27	-115.389
				2030.27	-115.389
				2031.74	-113.357
				2031.74	-113.357
				2031.74	-113.357
		2033.2	-113.678	2033.2	-123.383
		2033.2	-123.383	2033.2	-123.383
				2033.2	-123.383
				2034.67	-110.527
				2034.67	-110.527
				2034.67	-110.527
				2036.13	-108.259
				2036.13	-108.259
				2036.13	-108.259
		2037.6	-113.016	2037.6	-114.636
		2037.6	-114.636	2037.6	-114.636
				2037.6	-114.636
		2039.06	-107.686	2039.06	-117.634
		2039.06	-117.634	2039.06	-117.634
				2039.06	-117.634
				2040.53	-104.84
				2040.53	-104.84
				2040.53	-104.84
		2041.99	-111.975	2041.99	-117.548
		2041.99	-117.548	2041.99	-117.548
				2041.99	-117.548
		2043.46	-106.353	2043.46	-110.32
		2043.46	-110.32	2043.46	-110.32
				2043.46	-110.32
2044.92	-59.4267			2044.92	-120.707
2044.92	-120.707			2044.92	-120.707
				2044.92	-120.707
		2046.39	-110.672	2046.39	-117.069
		2046.39	-117.069	2046.39	-117.069
				2046.39	-117.069
		2047.85	-112.6	2047.85	-121.394
		2047.85	-121.394	2047.85	-121.394
				2047.85	-121.394
		2049.32	-105.552	2049.32	-111.231
		2049.32	-111.231	2049.32	-111.231
				2049.32	-111.231
		2050.78	-107.423	2050.78	-110.353
		2050.78	-110.353	2050.78	-110.353
				2050.78	-110.353
				2052.25	-109.163
				2052.25	-109.163
				2052.25	-109.163
		2053.71	-103.594	2053.71	-108.357
		2053.71	-108.357	2053.71	-108.357
				2053.71	-108.357
				2055.18	-110.065
				2055.18	-110.065
				2055.18	-110.065
		2056.64	-105.926	2056.64	-113.557
		2056.64	-113.557	2056.64	-113.557
				2056.64	-113.557
		2058.11	-102.098	2058.11	-117.598
		2058.11	-117.598	2058.11	-117.598
				2058.11	-117.598
		2059.57	-107.195	2059.57	-117.705
		2059.57	-117.705	2059.57	-117.705
				2059.57	-117.705
				2061.04	-111.011
				2061.04	-111.011
				2061.04	-111.011
		2062.5	-106.315	2062.5	-107.613
		2062.5	-107.613	2062.5	-107.613
				2062.5	-107.613
		2063.96	-108.855	2063.96	-112.364
		2063.96	-112.364	2063.96	-112.364
				2063.96	-112.364
				2065.43	-103.951
				2065.43	-103.951
				2065.43	-103.951
		2066.89	-106.93	2066.89	-128.629
		2066.89	-128.629	2066.89	-128.629
				2066.89	-128.629
				2068.36	-109.95
				2068.36	-109.95
				2068.36	-109.95
		2069.82	-103.618	2069.82	-113.234
		2069.82	-113.234	2069.82	-113.234
				2069.82	-113.234
				2071.29	-113.19
				2071.29	-113.19
				2071.29	-113.19
		2072.75	-101.651	2072.75	-108.655
		2072.75	-108.655	2072.75	-108.655
				2072.75	-108.655
		2074.22	-115.781	2074.22	-120.373
		2074.22	-120.373	2074.22	-120.373
				2074.22	-120.373
				2075.68	-113.645
				2075.68	-113.645
				2075.68	-113.645
		2077.15	-109.637	2077.15	-120.821
		2077.15	-120.821	2077.15	-120.821
				2077.15	-120.821
		2078.61	-106.483	2078.61	-108.254
		2078.61	-108.254	2078.61	-108.254
				2078.61	-108.254
		2080.08	-111.459	2080.08	-117.118
		2080.08	-117.118	2080.08	-117.118
				2080.08	-117.118
		2081.54	-109.309	2081.54	-119.582
		2081.54	-119.582	2081.54	-119.582
				2081.54	-119.582
				2083.01	-108.215
				2083.01	-108.215
				2083.01	-108.215
		2084.47	-109.443	2084.47	-113.397
		2084.47	-113.397	2084.47	-113.397
				2084.47	-113.397
		2085.94	-112.222	2085.94	-117.795
		2085.94	-117.795	2085.94	-117.795
				2085.94	-117.795
				2087.4	-108.78
				2087.4	-108.78
				2087.4	-108.78
		2088.87	-107.788	2088.87	-110.852
		2088.87	-110.852	2088.87	-110.852
				2088.87	-110.852
		2090.33	-113.396	2090.33	-120.678
		2090.33	-120.678	2090.33	-120.678
				2090.33	-120.678
				2091.8	-108.4
				2091.8	-108.4
				2091.8	-108.4
				2093.26	-108.105
				2093.26	-108.105
				2093.26	-108.105
				2094.73	-109.863
				2094.73	-109.863
				2094.73	-109.863
				2096.19	-110.346
				2096.19	-110.346
				2096.19	-110.346
		2097.66	-115.223	2097.66	-121.929
		2097.66	-121.929	2097.66	-121.929
				2097.66	-121.929
		2099.12	-113.446	2099.12	-118.826
		2099.12	-118.826	2099.12	-118.826
				2099.12	-118.826
				2100.59	-113.148
				2100.59	-113.148
				2100.59	-113.148
		2102.05	-112.149	2102.05	-114.152
		2102.05	-114.152	2102.05	-114.152
				2102.05	-114.152
				2103.52	-122.814
				2103.52	-122.814
				2103.52	-122.814
		2104.98	-102.618	2104.98	-108.693
		2104.98	-108.693	2104.98	-108.693
				2104.98	-108.693
				2106.45	-110.594
				2106.45	-110.594
				2106.45	-110.594
				2107.91	-113.075
				2107.91	-113.075
				2107.91	-113.075
		2109.38	-104.597	2109.38	-122.475
		2109.38	-122.475	2109.38	-122.475
				2109.38	-122.475
		2110.84	-103.744	2110.84	-112.16
		2110.84	-112.16	2110.84	-112.16
				2110.84	-112.16
		2112.3	-109.896	2112.3	-111.416
		2112.3	-111.416	2112.3	-111.416
				2112.3	-111.416
		2113.77	-102.381	2113.77	-113.912
		2113.77	-113.912	2113.77	-113.912
				2113.77	-113.912
				2115.23	-114.513
				2115.23	-114.513
				2115.23	-114.513
				2116.7	-107.775
				2116.7	-107.775
				2116.7	-107.775
		2118.16	-115.247	2118.16	-125.181
		2118.16	-125.181	2118.16	-125.181
				2118.16	-125.181
				2119.63	-106.418
				2119.63	-106.418
				2119.63	-106.418
		2121.09	-113.168	2121.09	-117.086
		2121.09	-117.086	2121.09	-117.086
				2121.09	-117.086
		2122.56	-104.406	2122.56	-110.151
		2122.56	-110.151	2122.56	-110.151
				2122.56	-110.151
				2124.02	-111.259
				2124.02	-111.259
				2124.02	-111.259
				2125.49	-109.873
				2125.49	-109.873
				2125.49	-109.873
		2126.95	-109.958	2126.95	-114.734
		2126.95	-114.734	2126.95	-114.734
				2126.95	-114.734
		2128.42	-106.912	2128.42	-111.807
		2128.42	-111.807	2128.42	-111.807
				2128.42	-111.807
		2129.88	-113.525	2129.88	-114.981
		2129.88	-114.981	2129.88	-114.981
				2129.88	-114.981
		2131.35	-105.898	2131.35	-127.86
		2131.35	-127.86	2131.35	-127.86
				2131.35	-127.86
		2132.81	-105.286	2132.81	-114.911
		2132.81	-114.911	2132.81	-114.911
				2132.81	-114.911
				2134.28	-112.054
				2134.28	-112.054
				2134.28	-112.054
		2135.74	-104.887	2135.74	-115.334
		2135.74	-115.334	2135.74	-115.334
				2135.74	-115.334
				2137.21	-103.014
				2137.21	-103.014
				2137.21	-103.014
		2138.67	-112.406	2138.67	-113.932
		2138.67	-113.932	2138.67	-113.932
				2138.67	-113.932
		2140.14	-107.365	2140.14	-125.597
		2140.14	-125.597	2140.14	-125.597
				2140.14	-125.597
		2141.6	-104.667	2141.6	-112.476
		2141.6	-112.476	2141.6	-112.476
				2141.6	-112.476
		2143.07	-109.25	2143.07	-111.422
		2143.07	-111.422	2143.07	-111.422
				2143.07	-111.422
		2144.53	-107.43	2144.53	-112.781
		2144.53	-112.781	2144.53	-112.781
				2144.53	-112.781
				2146	-109.687
				2146	-109.687
				2146	-109.687
				2147.46	-112.899
				2147.46	-112.899
				2147.46	-112.899
				2148.93	-107.001
				2148.93	-107.001
				2148.93	-107.001
				2150.39	-113.688
				2150.39	-113.688
				2150.39	-113.688
				2151.86	-112.354
				2151.86	-112.354
				2151.86	-112.354
		2153.32	-106.697	2153.32	-111.437
		2153.32	-111.437	2153.32	-111.437
				2153.32	-111.437
				2154.79	-114.55
				2154.79	-114.55
				2154.79	-114.55
		2156.25	-104.474	2156.25	-110.056
		2156.25	-110.056	2156.25	-110.056
				2156.25	-110.056
		2157.71	-106.825	2157.71	-111.128
		2157.71	-111.128	2157.71	-111.128
				2157.71	-111.128
		2159.18	-103.084	2159.18	-119.817
		2159.18	-119.817	2159.18	-119.817
				2159.18	-119.817
		2160.64	-106.351	2160.64	-115.98
		2160.64	-115.98	2160.64	-115.98
				2160.64	-115.98
				2162.11	-122.789
				2162.11	-122.789
				2162.11	-122.789
		2163.57	-115.769	2163.57	-119.996
		2163.57	-119.996	2163.57	-119.996
				2163.57	-119.996
		2165.04	-108.927	2165.04	-122.581
		2165.04	-122.581	2165.04	-122.581
				2165.04	-122.581
				2166.5	-117.655
				2166.5	-117.655
				2166.5	-117.655
		2167.97	-110.975	2167.97	-114.591
		2167.97	-114.591	2167.97	-114.591
				2167.97	-114.591
				2169.43	-105.82
				2169.43	-105.82
				2169.43	-105.82
		2170.9	-104.015	2170.9	-113.002
		2170.9	-113.002	2170.9	-113.002
				2170.9	-113.002
		2172.36	-112.158	2172.36	-114.924
		2172.36	-114.924	2172.36	-114.924
				2172.36	-114.924
		2173.83	-105.955	2173.83	-112.66
		2173.83	-112.66	2173.83	-112.66
				2173.83	-112.66
		2175.29	-109.498	2175.29	-120.383
		2175.29	-120.383	2175.29	-120.383
				2175.29	-120.383
		2176.76	-108.516	2176.76	-111.559
		2176.76	-111.559	2176.76	-111.559
				2176.76	-111.559
		2178.22	-109.111	2178.22	-124.836
		2178.22	-124.836	2178.22	-124.836
				2178.22	-124.836
		2179.69	-110.566	2179.69	-121.703
		2179.69	-121.703	2179.69	-121.703
				2179.69	-121.703
		2181.15	-105.376	2181.15	-111.947
		2181.15	-111.947	2181.15	-111.947
				2181.15	-111.947
				2182.62	-117.833
				2182.62	-117.833
				2182.62	-117.833
		2184.08	-105.72	2184.08	-109.325
		2184.08	-109.325	2184.08	-109.325
				2184.08	-109.325
		2185.55	-115.833	2185.55	-119.466
		2185.55	-119.466	2185.55	-119.466
				2185.55	-119.466
		2187.01	-107.383	2187.01	-111.941
		2187.01	-111.941	2187.01	-111.941
				2187.01	-111.941
		2188.48	-122.628	2188.48	-129.235
		2188.48	-129.235	2188.48	-129.235
				2188.48	-129.235
		2189.94	-111.453	2189.94	-118.712
		2189.94	-118.712	2189.94	-118.712
				2189.94	-118.712
		2191.41	-111.168	2191.41	-112.978
		2191.41	-112.978	2191.41	-112.978
				2191.41	-112.978
				2192.87	-105.498
				2192.87	-105.498
				2192.87	-105.498
				2194.34	-105.665
				2194.34	-105.665
				2194.34	-105.665
		2195.8	-121.223	2195.8	-122.793
		2195.8	-122.793	2195.8	-122.793
				2195.8	-122.793
		2197.27	-108.215	2197.27	-114.418
		2197.27	-114.418	2197.27	-114.418
				2197.27	-114.418
		2198.73	-103.247	2198.73	-111.417
		2198.73	-111.417	2198.73	-111.417
				2198.73	-111.417
				2200.2	-107.748
				2200.2	-107.748
				2200.2	-107.748
				2201.66	-110.821
				2201.66	-110.821
				2201.66	-110.821
		2203.13	-112.414	2203.13	-118.999
		2203.13	-118.999	2203.13	-118.999
				2203.13	-118.999
				2204.59	-106.472
				2204.59	-106.472
				2204.59	-106.472
		2206.05	-111.962	2206.05	-117.594
		2206.05	-117.594	2206.05	-117.594
				2206.05	-117.594
				2207.52	-108.577
				2207.52	-108.577
				2207.52	-108.577
		2208.98	-116.426	2208.98	-134.368
		2208.98	-134.368	2208.98	-134.368
				2208.98	-134.368
				2210.45	-110.08
				2210.45	-110.08
				2210.45	-110.08
				2211.91	-112.285
				2211.91	-112.285
				2211.91	-112.285
				2213.38	-106.207
				2213.38	-106.207
				2213.38	-106.207
				2214.84	-110.343
				2214.84	-110.343
				2214.84	-110.343
		2216.31	-111.652	2216.31	-114.722
		2216.31	-114.722	2216.31	-114.722
				2216.31	-114.722
		2217.77	-103.109	2217.77	-120.079
		2217.77	-120.079	2217.77	-120.079
				2217.77	-120.079
				2219.24	-107.854
				2219.24	-107.854
				2219.24	-107.854
		2220.7	-108.814	2220.7	-113.787
		2220.7	-113.787	2220.7	-113.787
				2220.7	-113.787
		2222.17	-115.924	2222.17	-127.891
		2222.17	-127.891	2222.17	-127.891
				2222.17	-127.891
		2223.63	-114.046	2223.63	-129.161
		2223.63	-129.161	2223.63	-129.161
				2223.63	-129.161
				2225.1	-113.136
				2225.1	-113.136
				2225.1	-113.136
				2226.56	-108.645
				2226.56	-108.645
				2226.56	-108.645
		2228.03	-106.455	2228.03	-112.538
		2228.03	-112.538	2228.03	-112.538
				2228.03	-112.538
		2229.49	-106.605	2229.49	-112.968
		2229.49	-112.968	2229.49	-112.968
				2229.49	-112.968
				2230.96	-110.146
				2230.96	-110.146
				2230.96	-110.146
		2232.42	-109.257	2232.42	-113.563
		2232.42	-113.563	2232.42	-113.563
				2232.42	-113.563
		2233.89	-109.299	2233.89	-110.89
		2233.89	-110.89	2233.89	-110.89
				2233.89	-110.89
				2235.35	-117.287
				2235.35	-117.287
				2235.35	-117.287
				2236.82	-111.589
				2236.82	-111.589
				2236.82	-111.589
		2238.28	-112.621	2238.28	-116.572
		2238.28	-116.572	2238.28	-116.572
				2238.28	-116.572
				2239.75	-112.848
				2239.75	-112.848
				2239.75	-112.848
		2241.21	-106.764	2241.21	-114.479
		2241.21	-114.479	2241.21	-114.479
				2241.21	-114.479
		2242.68	-109.667	2242.68	-111.329
		2242.68	-111.329	2242.68	-111.329
				2242.68	-111.329
		2244.14	-111.575	2244.14	-120.774
		2244.14	-120.774	2244.14	-120.774
				2244.14	-120.774
				2245.61	-109.65
				2245.61	-109.65
				2245.61	-109.65
		2247.07	-112.261	2247.07	-113.447
		2247.07	-113.447	2247.07	-113.447
				2247.07	-113.447
				2248.54	-108.793
				2248.54	-108.793
				2248.54	-108.793
		2250	-106.729	2250	-113.229
		2250	-113.229	2250	-113.229
				2250	-113.229
		2251.46	-111.816	2251.46	-115.374
		2251.46	-115.374	2251.46	-115.374
				2251.46	-115.374
				2252.93	-118.006
				2252.93	-118.006
				2252.93	-118.006
				2254.39	-105.372
				2254.39	-105.372
				2254.39	-105.372
		2255.86	-105.24	2255.86	-121.114
		2255.86	-121.114	2255.86	-121.114
				2255.86	-121.114
				2257.32	-111.759
				2257.32	-111.759
				2257.32	-111.759
				2258.79	-110.059
				2258.79	-110.059
				2258.79	-110.059
				2260.25	-111.016
				2260.25	-111.016
				2260.25	-111.016
				2261.72	-110.139
				2261.72	-110.139
				2261.72	-110.139
		2263.18	-106.563	2263.18	-111.698
		2263.18	-111.698	2263.18	-111.698
				2263.18	-111.698
				2264.65	-107.644
				2264.65	-107.644
				2264.65	-107.644
				2266.11	-110.942
				2266.11	-110.942
				2266.11	-110.942
				2267.58	-111.001
				2267.58	-111.001
				2267.58	-111.001
				2269.04	-112.454
				2269.04	-112.454
				2269.04	-112.454
		2270.51	-107.678	2270.51	-121.655
		2270.51	-121.655	2270.51	-121.655
				2270.51	-121.655
				2271.97	-109.611
				2271.97	-109.611
				2271.97	-109.611
		2273.44	-112.02	2273.44	-116.013
		2273.44	-116.013	2273.44	-116.013
				2273.44	-116.013
				2274.9	-113.604
				2274.9	-113.604
				2274.9	-113.604
		2276.37	-105.211	2276.37	-113.818
		2276.37	-113.818	2276.37	-113.818
				2276.37	-113.818
				2277.83	-115.545
				2277.83	-115.545
				2277.83	-115.545
		2279.3	-104.412	2279.3	-111.425
		2279.3	-111.425	2279.3	-111.425
				2279.3	-111.425
		2280.76	-108.293	2280.76	-124.766
		2280.76	-124.766	2280.76	-124.766
				2280.76	-124.766
		2282.23	-108.398	2282.23	-121.746
		2282.23	-121.746	2282.23	-121.746
				2282.23	-121.746
				2283.69	-110.718
				2283.69	-110.718
				2283.69	-110.718
				2285.16	-110.42
				2285.16	-110.42
				2285.16	-110.42
		2286.62	-110.505	2286.62	-126.358
		2286.62	-126.358	2286.62	-126.358
				2286.62	-126.358
				2288.09	-112.221
				2288.09	-112.221
				2288.09	-112.221
		2289.55	-113.84	2289.55	-116.747
		2289.55	-116.747	2289.55	-116.747
				2289.55	-116.747
		2291.02	-106.36	2291.02	-112.969
		2291.02	-112.969	2291.02	-112.969
				2291.02	-112.969
		2292.48	-108.591	2292.48	-120.23
		2292.48	-120.23	2292.48	-120.23
				2292.48	-120.23
		2293.95	-109.945	2293.95	-112.886
		2293.95	-112.886	2293.95	-112.886
				2293.95	-112.886
				2295.41	-115.074
				2295.41	-115.074
				2295.41	-115.074
		2296.88	-100.645	2296.88	-115.228
		2296.88	-115.228	2296.88	-115.228
				2296.88	-115.228
				2298.34	-112.164
				2298.34	-112.164
				2298.34	-112.164
				2299.8	-104.294
				2299.8	-104.294
				2299.8	-104.294
				2301.27	-109.508
				2301.27	-109.508
				2301.27	-109.508
		2302.73	-121.003	2302.73	-124.727
		2302.73	-124.727	2302.73	-124.727
				2302.73	-124.727
				2304.2	-111.421
				2304.2	-111.421
				2304.2	-111.421
		2305.66	-106.331	2305.66	-118.962
		2305.66	-118.962	2305.66	-118.962
				2305.66	-118.962
				2307.13	-107.928
				2307.13	-107.928
				2307.13	-107.928
		2308.59	-108.133	2308.59	-113.933
		2308.59	-113.933	2308.59	-113.933
				2308.59	-113.933
				2310.06	-107.94
				2310.06	-107.94
				2310.06	-107.94
		2311.52	-106.562	2311.52	-116.193
		2311.52	-116.193	2311.52	-116.193
				2311.52	-116.193
				2312.99	-108.462
				2312.99	-108.462
				2312.99	-108.462
		2314.45	-105.164	2314.45	-108.732
		2314.45	-108.732	2314.45	-108.732
				2314.45	-108.732
		2315.92	-115.711	2315.92	-119.554
		2315.92	-119.554	2315.92	-119.554
				2315.92	-119.554
				2317.38	-108.46
				2317.38	-108.46
				2317.38	-108.46
		2318.85	-111.236	2318.85	-114.841
		2318.85	-114.841	2318.85	-114.841
				2318.85	-114.841
		2320.31	-109.052	2320.31	-116.449
		2320.31	-116.449	2320.31	-116.449
				2320.31	-116.449
		2321.78	-116.931	2321.78	-119.562
		2321.78	-119.562	2321.78	-119.562
				2321.78	-119.562
		2323.24	-108.356	2323.24	-113.427
		2323.24	-113.427	2323.24	-113.427
				2323.24	-113.427
				2324.71	-109.312
				2324.71	-109.312
				2324.71	-109.312
				2326.17	-107.955
				2326.17	-107.955
				2326.17	-107.955
		2327.64	-108.298	2327.64	-109.359
		2327.64	-109.359	2327.64	-109.359
				2327.64	-109.359
		2329.1	-118.845	2329.1	-126.075
		2329.1	-126.075	2329.1	-126.075
				2329.1	-126.075
		2330.57	-109.132	2330.57	-110.615
		2330.57	-110.615	2330.57	-110.615
				2330.57	-110.615
		2332.03	-111.108	2332.03	-113.429
		2332.03	-113.429	2332.03	-113.429
				2332.03	-113.429
				2333.5	-106.563
				2333.5	-106.563
				2333.5	-106.563
				2334.96	-112.132
				2334.96	-112.132
				2334.96	-112.132
		2336.43	-114.203	2336.43	-115.45
		2336.43	-115.45	2336.43	-115.45
				2336.43	-115.45
				2337.89	-108.162
				2337.89	-108.162
				2337.89	-108.162
		2339.36	-103.609	2339.36	-119.759
		2339.36	-119.759	2339.36	-119.759
				2339.36	-119.759
				2340.82	-117.64
				2340.82	-117.64
				2340.82	-117.64
				2342.29	-118.071
				2342.29	-118.071
				2342.29	-118.071
				2343.75	-104.934
				2343.75	-104.934
				2343.75	-104.934
		2345.21	-114.567	2345.21	-129.673
		2345.21	-129.673	2345.21	-129.673
				2345.21	-129.673
		2346.68	-112.175	2346.68	-120.785
		2346.68	-120.785	2346.68	-120.785
				2346.68	-120.785
				2348.14	-112.042
				2348.14	-112.042
				2348.14	-112.042
		2349.61	-113.075	2349.61	-117.143
		2349.61	-117.143	2349.61	-117.143
				2349.61	-117.143
				2351.07	-103.458
				2351.07	-103.458
				2351.07	-103.458
		2352.54	-110.725	2352.54	-118.224
		2352.54	-118.224	2352.54	-118.224
				2352.54	-118.224
		2354	-105.737	2354	-120.991
		2354	-120.991	2354	-120.991
				2354	-120.991
		2355.47	-110.166	2355.47	-115.324
		2355.47	-115.324	2355.47	-115.324
				2355.47	-115.324
		2356.93	-113.481	2356.93	-120.474
		2356.93	-120.474	2356.93	-120.474
				2356.93	-120.474
				2358.4	-114.806
				2358.4	-114.806
				2358.4	-114.806
				2359.86	-113.529
				2359.86	-113.529
				2359.86	-113.529
		2361.33	-113.297	2361.33	-137.056
		2361.33	-137.056	2361.33	-137.056
				2361.33	-137.056
				2362.79	-108.301
				2362.79	-108.301
				2362.79	-108.301
				2364.26	-117.271
				2364.26	-117.271
				2364.26	-117.271
				2365.72	-108.713
				2365.72	-108.713
				2365.72	-108.713
		2367.19	-110.057	2367.19	-114.121
		2367.19	-114.121	2367.19	-114.121
				2367.19	-114.121
		2368.65	-105.811	2368.65	-110.913
		2368.65	-110.913	2368.65	-110.913
				2368.65	-110.913
				2370.12	-113.2
				2370.12	-113.2
				2370.12	-113.2
		2371.58	-114.035	2371.58	-115.74
		2371.58	-115.74	2371.58	-115.74
				2371.58	-115.74
		2373.05	-108.643	2373.05	-109.837
		2373.05	-109.837	2373.05	-109.837
				2373.05	-109.837
				2374.51	-112.85
				2374.51	-112.85
				2374.51	-112.85
		2375.98	-113.661	2375.98	-118.673
		2375.98	-118.673	2375.98	-118.673
				2375.98	-118.673
				2377.44	-109.42
				2377.44	-109.42
				2377.44	-109.42
		2378.91	-111.174	2378.91	-112.463
		2378.91	-112.463	2378.91	-112.463
				2378.91	-112.463
		2380.37	-112.01	2380.37	-123.746
		2380.37	-123.746	2380.37	-123.746
				2380.37	-123.746
		2381.84	-110.823	2381.84	-113.91
		2381.84	-113.91	2381.84	-113.91
				2381.84	-113.91
		2383.3	-109.165	2383.3	-114.282
		2383.3	-114.282	2383.3	-114.282
				2383.3	-114.282
				2384.77	-117.516
				2384.77	-117.516
				2384.77	-117.516
		2386.23	-110.687	2386.23	-115.224
		2386.23	-115.224	2386.23	-115.224
				2386.23	-115.224
		2387.7	-108.004	2387.7	-109.471
		2387.7	-109.471	2387.7	-109.471
				2387.7	-109.471
		2389.16	-111.786	2389.16	-115.817
		2389.16	-115.817	2389.16	-115.817
				2389.16	-115.817
		2390.63	-105.923	2390.63	-108.44
		2390.63	-108.44	2390.63	-108.44
				2390.63	-108.44
				2392.09	-110.693
				2392.09	-110.693
				2392.09	-110.693
				2393.55	-116.116
				2393.55	-116.116
				2393.55	-116.116
		2395.02	-110.537	2395.02	-119.778
		2395.02	-119.778	2395.02	-119.778
				2395.02	-119.778
		2396.48	-105.895	2396.48	-110.086
		2396.48	-110.086	2396.48	-110.086
				2396.48	-110.086
				2397.95	-111.169
				2397.95	-111.169
				2397.95	-111.169
		2399.41	-108.567	2399.41	-110.341
		2399.41	-110.341	2399.41	-110.341
				2399.41	-110.341
		2400.88	-107.695	2400.88	-114.611
		2400.88	-114.611	2400.88	-114.611
				2400.88	-114.611
				2402.34	-110.701
				2402.34	-110.701
				2402.34	-110.701
		2403.81	-106.02	2403.81	-109.385
		2403.81	-109.385	2403.81	-109.385
				2403.81	-109.385
		2405.27	-114.445	2405.27	-123.335
		2405.27	-123.335	2405.27	-123.335
				2405.27	-123.335
				2406.74	-110.419
				2406.74	-110.419
				2406.74	-110.419
		2408.2	-115.131	2408.2	-121.426
		2408.2	-121.426	2408.2	-121.426
				2408.2	-121.426
				2409.67	-111.633
				2409.67	-111.633
				2409.67	-111.633
				2411.13	-112.693
				2411.13	-112.693
				2411.13	-112.693
		2412.6	-109.8	2412.6	-119.915
		2412.6	-119.915	2412.6	-119.915
				2412.6	-119.915
				2414.06	-104.261
				2414.06	-104.261
				2414.06	-104.261
		2415.53	-114.187	2415.53	-119.53
		2415.53	-119.53	2415.53	-119.53
				2415.53	-119.53
		2416.99	-107.932	2416.99	-114.168
		2416.99	-114.168	2416.99	-114.168
				2416.99	-114.168
		2418.46	-108.388	2418.46	-111.428
		2418.46	-111.428	2418.46	-111.428
				2418.46	-111.428
				2419.92	-110.066
				2419.92	-110.066
				2419.92	-110.066
		2421.39	-115.825	2421.39	-118.849
		2421.39	-118.849	2421.39	-118.849
				2421.39	-118.849
		2422.85	-107.453	2422.85	-119.287
		2422.85	-119.287	2422.85	-119.287
				2422.85	-119.287
				2424.32	-107.195
				2424.32	-107.195
				2424.32	-107.195
		2425.78	-112.637	2425.78	-132.616
		2425.78	-132.616	2425.78	-132.616
				2425.78	-132.616
				2427.25	-112.76
				2427.25	-112.76
				2427.25	-112.76
		2428.71	-107.936	2428.71	-113.723
		2428.71	-113.723	2428.71	-113.723
				2428.71	-113.723
		2430.18	-105.379	2430.18	-107.592
		2430.18	-107.592	2430.18	-107.592
				2430.18	-107.592
		2431.64	-104.847	2431.64	-113.839
		2431.64	-113.839	2431.64	-113.839
				2431.64	-113.839
				2433.11	-110.862
				2433.11	-110.862
				2433.11	-110.862
		2434.57	-105.53	2434.57	-109.418
		2434.57	-109.418	2434.57	-109.418
				2434.57	-109.418
		2436.04	-109.981	2436.04	-119.495
		2436.04	-119.495	2436.04	-119.495
				2436.04	-119.495
		2437.5	-105.679	2437.5	-108.218
		2437.5	-108.218	2437.5	-108.218
				2437.5	-108.218
		2438.96	-112.657	2438.96	-117.207
		2438.96	-117.207	2438.96	-117.207
				2438.96	-117.207
		2440.43	-116.526	2440.43	-126.468
		2440.43	-126.468	2440.43	-126.468
				2440.43	-126.468
				2441.89	-119.319
				2441.89	-119.319
				2441.89	-119.319
				2443.36	-110.763
				2443.36	-110.763
				2443.36	-110.763
		2444.82	-107.461	2444.82	-112.202
		2444.82	-112.202	2444.82	-112.202
				2444.82	-112.202
				2446.29	-106.975
				2446.29	-106.975
				2446.29	-106.975
		2447.75	-106.844	2447.75	-111.825
		2447.75	-111.825	2447.75	-111.825
				2447.75	-111.825
				2449.22	-119.05
				2449.22	-119.05
				2449.22	-119.05
				2450.68	-114.546
				2450.68	-114.546
				2450.68	-114.546
				2452.15	-110.962
				2452.15	-110.962
				2452.15	-110.962
		2453.61	-110.704	2453.61	-115.213
		2453.61	-115.213	2453.61	-115.213
				2453.61	-115.213
				2455.08	-113.256
				2455.08	-113.256
				2455.08	-113.256
				2456.54	-113.615
				2456.54	-113.615
				2456.54	-113.615
		2458.01	-114.756	2458.01	-116.248
		2458.01	-116.248	2458.01	-116.248
				2458.01	-116.248
				2459.47	-113.64
				2459.47	-113.64
				2459.47	-113.64
		2460.94	-110.492	2460.94	-121.054
		2460.94	-121.054	2460.94	-121.054
				2460.94	-121.054
		2462.4	-112	2462.4	-143.234
		2462.4	-143.234	2462.4	-143.234
				2462.4	-143.234
		2463.87	-117.994	2463.87	-119.322
		2463.87	-119.322	2463.87	-119.322
				2463.87	-119.322
		2465.33	-103.993	2465.33	-110.446
		2465.33	-110.446	2465.33	-110.446
				2465.33	-110.446
				2466.8	-112.293
				2466.8	-112.293
				2466.8	-112.293
		2468.26	-111.43	2468.26	-118.805
		2468.26	-118.805	2468.26	-118.805
				2468.26	-118.805
		2469.73	-110.081	2469.73	-113.482
		2469.73	-113.482	2469.73	-113.482
				2469.73	-113.482
				2471.19	-108.796
				2471.19	-108.796
				2471.19	-108.796
				2472.66	-105.367
				2472.66	-105.367
				2472.66	-105.367
		2474.12	-110.583	2474.12	-121.476
		2474.12	-121.476	2474.12	-121.476
				2474.12	-121.476
		2475.59	-106.993	2475.59	-113.903
		2475.59	-113.903	2475.59	-113.903
				2475.59	-113.903
				2477.05	-114.809
				2477.05	-114.809
				2477.05	-114.809
		2478.52	-102.488	2478.52	-113.376
		2478.52	-113.376	2478.52	-113.376
				2478.52	-113.376
		2479.98	-114.188	2479.98	-115.537
		2479.98	-115.537	2479.98	-115.537
				2479.98	-115.537
				2481.45	-110.088
				2481.45	-110.088
				2481.45	-110.088
				2482.91	-111.758
				2482.91	-111.758
				2482.91	-111.758
				2484.38	-113.562
				2484.38	-113.562
				2484.38	-113.562
		2485.84	-112.651	2485.84	-119.379
		2485.84	-119.379	2485.84	-119.379
				2485.84	-119.379
				2487.3	-110.538
				2487.3	-110.538
				2487.3	-110.538
		2488.77	-106.368	2488.77	-118.426
		2488.77	-118.426	2488.77	-118.426
				2488.77	-118.426
		2490.23	-107.054	2490.23	-109.787
		2490.23	-109.787	2490.23	-109.787
				2490.23	-109.787
				2491.7	-106.015
				2491.7	-106.015
				2491.7	-106.015
		2493.16	-110.477	2493.16	-119.507
		2493.16	-119.507	2493.16	-119.507
				2493.16	-119.507
		2494.63	-105.799	2494.63	-122.403
		2494.63	-122.403	2494.63	-122.403
				2494.63	-122.403
		2496.09	-102.544	2496.09	-106.471
		2496.09	-106.471	2496.09	-106.471
				2496.09	-106.471
				2497.56	-112.017
				2497.56	-112.017
				2497.56	-112.017
				2499.02	-109.883
				2499.02	-109.883
				2499.02	-109.883
		2500.49	-108.404	2500.49	-113.578
		2500.49	-113.578	2500.49	-113.578
				2500.49	-113.578
				2501.95	-106.316
				2501.95	-106.316
				2501.95	-106.316
				2503.42	-109.535
				2503.42	-109.535
				2503.42	-109.535
		2504.88	-116.372	2504.88	-124.204
		2504.88	-124.204	2504.88	-124.204
				2504.88	-124.204
				2506.35	-113.926
				2506.35	-113.926
				2506.35	-113.926
				2507.81	-110.388
				2507.81	-110.388
				2507.81	-110.388
				2509.28	-115.404
				2509.28	-115.404
				2509.28	-115.404
				2510.74	-108.787
				2510.74	-108.787
				2510.74	-108.787
				2512.21	-109.88
				2512.21	-109.88
				2512.21	-109.88
		2513.67	-112.136	2513.67	-114.299
		2513.67	-114.299	2513.67	-114.299
				2513.67	-114.299
		2515.14	-106.972	2515.14	-118.988
		2515.14	-118.988	2515.14	-118.988
				2515.14	-118.988
		2516.6	-108.046	2516.6	-120.107
		2516.6	-120.107	2516.6	-120.107
				2516.6	-120.107
		2518.07	-111.011	2518.07	-125.075
		2518.07	-125.075	2518.07	-125.075
				2518.07	-125.075
		2519.53	-113.674	2519.53	-120.127
		2519.53	-120.127	2519.53	-120.127
				2519.53	-120.127
				2521	-106.192
				2521	-106.192
				2521	-106.192
		2522.46	-108.499	2522.46	-113.289
		2522.46	-113.289	2522.46	-113.289
				2522.46	-113.289
				2523.93	-113.03
				2523.93	-113.03
				2523.93	-113.03
				2525.39	-110.366
				2525.39	-110.366
				2525.39	-110.366
				2526.86	-106.09
				2526.86	-106.09
				2526.86	-106.09
				2528.32	-119.15
				2528.32	-119.15
				2528.32	-119.15
		2529.79	-111.999	2529.79	-113.913
		2529.79	-113.913	2529.79	-113.913
				2529.79	-113.913
		2531.25	-108.601	2531.25	-111.41
		2531.25	-111.41	2531.25	-111.41
				2531.25	-111.41
		2532.71	-107.152	2532.71	-122.108
		2532.71	-122.108	2532.71	-122.108
				2532.71	-122.108
		2534.18	-110.267	2534.18	-114.923
		2534.18	-114.923	2534.18	-114.923
				2534.18	-114.923
				2535.64	-116.924
				2535.64	-116.924
				2535.64	-116.924
		2537.11	-110.734	2537.11	-117.82
		2537.11	-117.82	2537.11	-117.82
				2537.11	-117.82
		2538.57	-106.415	2538.57	-113.619
		2538.57	-113.619	2538.57	-113.619
				2538.57	-113.619
		2540.04	-103.612	2540.04	-108.614
		2540.04	-108.614	2540.04	-108.614
				2540.04	-108.614
		2541.5	-110.228	2541.5	-114.944
		2541.5	-114.944	2541.5	-114.944
				2541.5	-114.944
		2542.97	-108.543	2542.97	-114.51
		2542.97	-114.51	2542.97	-114.51
				2542.97	-114.51
				2544.43	-111.128
				2544.43	-111.128
				2544.43	-111.128
		2545.9	-114.041	2545.9	-117.734
		2545.9	-117.734	2545.9	-117.734
				2545.9	-117.734
				2547.36	-110.705
				2547.36	-110.705
				2547.36	-110.705
		2548.83	-111.595	2548.83	-113.297
		2548.83	-113.297	2548.83	-113.297
				2548.83	-113.297
				2550.29	-110.903
				2550.29	-110.903
				2550.29	-110.903
				2551.76	-110.877
				2551.76	-110.877
				2551.76	-110.877
		2553.22	-115.694	2553.22	-120.208
		2553.22	-120.208	2553.22	-120.208
				2553.22	-120.208
				2554.69	-109.911
				2554.69	-109.911
				2554.69	-109.911
				2556.15	-111.438
				2556.15	-111.438
				2556.15	-111.438
				2557.62	-110.289
				2557.62	-110.289
				2557.62	-110.289
				2559.08	-112.83
				2559.08	-112.83
				2559.08	-112.83
				2560.55	-110.719
				2560.55	-110.719
				2560.55	-110.719
				2562.01	-114.006
				2562.01	-114.006
				2562.01	-114.006
		2563.48	-111.57	2563.48	-113.014
		2563.48	-113.014	2563.48	-113.014
				2563.48	-113.014
				2564.94	-114.389
				2564.94	-114.389
				2564.94	-114.389
				2566.41	-106.587
				2566.41	-106.587
				2566.41	-106.587
				2567.87	-103.651
				2567.87	-103.651
				2567.87	-103.651
				2569.34	-111.399
				2569.34	-111.399
				2569.34	-111.399
				2570.8	-106.516
				2570.8	-106.516
				2570.8	-106.516
		2572.27	-112.243	2572.27	-118.518
		2572.27	-118.518	2572.27	-118.518
				2572.27	-118.518
		2573.73	-111.586	2573.73	-114.952
		2573.73	-114.952	2573.73	-114.952
				2573.73	-114.952
				2575.2	-112.108
				2575.2	-112.108
				2575.2	-112.108
		2576.66	-104.304	2576.66	-110.874
		2576.66	-110.874	2576.66	-110.874
				2576.66	-110.874
		2578.13	-108.502	2578.13	-111.719
		2578.13	-111.719	2578.13	-111.719
				2578.13	-111.719
		2579.59	-108.457	2579.59	-109.488
		2579.59	-109.488	2579.59	-109.488
				2579.59	-109.488
				2581.05	-120.75
				2581.05	-120.75
				2581.05	-120.75
		2582.52	-103.944	2582.52	-119.247
		2582.52	-119.247	2582.52	-119.247
				2582.52	-119.247
		2583.98	-102.041	2583.98	-123.777
		2583.98	-123.777	2583.98	-123.777
				2583.98	-123.777
		2585.45	-105.087	2585.45	-108.783
		2585.45	-108.783	2585.45	-108.783
				2585.45	-108.783
				2586.91	-113.733
				2586.91	-113.733
				2586.91	-113.733
				2588.38	-111.558
				2588.38	-111.558
				2588.38	-111.558
		2589.84	-107.265	2589.84	-115.826
		2589.84	-115.826	2589.84	-115.826
				2589.84	-115.826
				2591.31	-106.164
				2591.31	-106.164
				2591.31	-106.164
				2592.77	-107.454
				2592.77	-107.454
				2592.77	-107.454
				2594.24	-108.367
				2594.24	-108.367
				2594.24	-108.367
		2595.7	-115.451	2595.7	-128.6
		2595.7	-128.6	2595.7	-128.6
				2595.7	-128.6
		2597.17	-107.389	2597.17	-114.092
		2597.17	-114.092	2597.17	-114.092
				2597.17	-114.092
				2598.63	-104.527
				2598.63	-104.527
				2598.63	-104.527
				2600.1	-112.645
				2600.1	-112.645
				2600.1	-112.645
				2601.56	-109.973
				2601.56	-109.973
				2601.56	-109.973
				2603.03	-116.292
				2603.03	-116.292
				2603.03	-116.292
		2604.49	-105.825	2604.49	-115.678
		2604.49	-115.678	2604.49	-115.678
				2604.49	-115.678
				2605.96	-105.986
				2605.96	-105.986
				2605.96	-105.986
		2607.42	-114.899	2607.42	-124.707
		2607.42	-124.707	2607.42	-124.707
				2607.42	-124.707
		2608.89	-116.624	2608.89	-121.026
		2608.89	-121.026	2608.89	-121.026
				2608.89	-121.026
		2610.35	-108.647	2610.35	-113.252
		2610.35	-113.252	2610.35	-113.252
				2610.35	-113.252
				2611.82	-108.839
				2611.82	-108.839
				2611.82	-108.839
		2613.28	-108.773	2613.28	-118.364
		2613.28	-118.364	2613.28	-118.364
				2613.28	-118.364
				2614.75	-104.388
				2614.75	-104.388
				2614.75	-104.388
				2616.21	-111.235
				2616.21	-111.235
				2616.21	-111.235
				2617.68	-110.612
				2617.68	-110.612
				2617.68	-110.612
		2619.14	-106.073	2619.14	-107.901
		2619.14	-107.901	2619.14	-107.901
				2619.14	-107.901
		2620.61	-111.883	2620.61	-118.135
		2620.61	-118.135	2620.61	-118.135
				2620.61	-118.135
				2622.07	-107.621
				2622.07	-107.621
				2622.07	-107.621
				2623.54	-108.965
				2623.54	-108.965
				2623.54	-108.965
		2625	-106.244	2625	-126.489
		2625	-126.489	2625	-126.489
				2625	-126.489
		2626.46	-106.056	2626.46	-122.154
		2626.46	-122.154	2626.46	-122.154
				2626.46	-122.154
				2627.93	-115.471
				2627.93	-115.471
				2627.93	-115.471
				2629.39	-112.351
				2629.39	-112.351
				2629.39	-112.351
		2630.86	-108.924	2630.86	-112.77
		2630.86	-112.77	2630.86	-112.77
				2630.86	-112.77
		2632.32	-107.547	2632.32	-118.267
		2632.32	-118.267	2632.32	-118.267
				2632.32	-118.267
		2633.79	-107.798	2633.79	-110.289
		2633.79	-110.289	2633.79	-110.289
				2633.79	-110.289
		2635.25	-108.838	2635.25	-113.05
		2635.25	-113.05	2635.25	-113.05
				2635.25	-113.05
		2636.72	-108.651	2636.72	-111.251
		2636.72	-111.251	2636.72	-111.251
				2636.72	-111.251
		2638.18	-105.462	2638.18	-109.161
		2638.18	-109.161	2638.18	-109.161
				2638.18	-109.161
				2639.65	-108.972
				2639.65	-108.972
				2639.65	-108.972
				2641.11	-116.683
				2641.11	-116.683
				2641.11	-116.683
		2642.58	-107.049	2642.58	-113.27
		2642.58	-113.27	2642.58	-113.27
				2642.58	-113.27
				2644.04	-109.885
				2644.04	-109.885
				2644.04	-109.885
				2645.51	-103.841
				2645.51	-103.841
				2645.51	-103.841
		2646.97	-108.144	2646.97	-110.429
		2646.97	-110.429	2646.97	-110.429
				2646.97	-110.429
		2648.44	-104.769	2648.44	-109.664
		2648.44	-109.664	2648.44	-109.664
				2648.44	-109.664
				2649.9	-108.272
				2649.9	-108.272
				2649.9	-108.272
				2651.37	-109.107
				2651.37	-109.107
				2651.37	-109.107
		2652.83	-109.589	2652.83	-112.755
		2652.83	-112.755	2652.83	-112.755
				2652.83	-112.755
				2654.3	-110.241
				2654.3	-110.241
				2654.3	-110.241
				2655.76	-114.682
				2655.76	-114.682
				2655.76	-114.682
		2657.23	-107.059	2657.23	-115.44
		2657.23	-115.44	2657.23	-115.44
				2657.23	-115.44
				2658.69	-124.965
				2658.69	-124.965
				2658.69	-124.965
		2660.16	-103.207	2660.16	-112.891
		2660.16	-112.891	2660.16	-112.891
				2660.16	-112.891
		2661.62	-117.985	2661.62	-121.322
		2661.62	-121.322	2661.62	-121.322
				2661.62	-121.322
				2663.09	-114.914
				2663.09	-114.914
				2663.09	-114.914
				2664.55	-110.196
				2664.55	-110.196
				2664.55	-110.196
				2666.02	-119.888
				2666.02	-119.888
				2666.02	-119.888
		2667.48	-110.386	2667.48	-112.203
		2667.48	-112.203	2667.48	-112.203
				2667.48	-112.203
		2668.95	-106.67	2668.95	-111.863
		2668.95	-111.863	2668.95	-111.863
				2668.95	-111.863
		2670.41	-109.809	2670.41	-113.984
		2670.41	-113.984	2670.41	-113.984
				2670.41	-113.984
		2671.88	-105.557	2671.88	-108.608
		2671.88	-108.608	2671.88	-108.608
				2671.88	-108.608
		2673.34	-104.938	2673.34	-113.64
		2673.34	-113.64	2673.34	-113.64
				2673.34	-113.64
		2674.8	-108.023	2674.8	-137.684
		2674.8	-137.684	2674.8	-137.684
				2674.8	-137.684
		2676.27	-109.519	2676.27	-115.472
		2676.27	-115.472	2676.27	-115.472
				2676.27	-115.472
				2677.73	-107.749
				2677.73	-107.749
				2677.73	-107.749
				2679.2	-113.359
				2679.2	-113.359
				2679.2	-113.359
				2680.66	-109.825
				2680.66	-109.825
				2680.66	-109.825
		2682.13	-112.806	2682.13	-123.518
		2682.13	-123.518	2682.13	-123.518
				2682.13	-123.518
		2683.59	-108.31	2683.59	-111.518
		2683.59	-111.518	2683.59	-111.518
				2683.59	-111.518
		2685.06	-103.841	2685.06	-107.572
		2685.06	-107.572	2685.06	-107.572
				2685.06	-107.572
				2686.52	-103.325
				2686.52	-103.325
				2686.52	-103.325
		2687.99	-110.759	2687.99	-114.438
		2687.99	-114.438	2687.99	-114.438
				2687.99	-114.438
		2689.45	-109.258	2689.45	-117.402
		2689.45	-117.402	2689.45	-117.402
				2689.45	-117.402
				2690.92	-110.525
				2690.92	-110.525
				2690.92	-110.525
				2692.38	-101.092
				2692.38	-101.092
				2692.38	-101.092
				2693.85	-111.257
				2693.85	-111.257
				2693.85	-111.257
		2695.31	-107.313	2695.31	-110.638
		2695.31	-110.638	2695.31	-110.638
				2695.31	-110.638
				2696.78	-108.283
				2696.78	-108.283
				2696.78	-108.283
		2698.24	-106.58	2698.24	-110.242
		2698.24	-110.242	2698.24	-110.242
				2698.24	-110.242
		2699.71	-107.552	2699.71	-113.991
		2699.71	-113.991	2699.71	-113.991
				2699.71	-113.991
		2701.17	-104.46	2701.17	-113.62
		2701.17	-113.62	2701.17	-113.62
				2701.17	-113.62
		2702.64	-108.174	2702.64	-121.269
		2702.64	-121.269	2702.64	-121.269
				2702.64	-121.269
				2704.1	-108.764
				2704.1	-108.764
				2704.1	-108.764
		2705.57	-111.626	2705.57	-115.424
		2705.57	-115.424	2705.57	-115.424
				2705.57	-115.424
				2707.03	-116.913
				2707.03	-116.913
				2707.03	-116.913
		2708.5	-104.185	2708.5	-125.986
		2708.5	-125.986	2708.5	-125.986
				2708.5	-125.986
				2709.96	-109.217
				2709.96	-109.217
				2709.96	-109.217
				2711.43	-118.454
				2711.43	-118.454
				2711.43	-118.454
				2712.89	-107.328
				2712.89	-107.328
				2712.89	-107.328
				2714.36	-108.734
				2714.36	-108.734
				2714.36	-108.734
		2715.82	-106.605	2715.82	-119.871
		2715.82	-119.871	2715.82	-119.871
				2715.82	-119.871
				2717.29	-111.046
				2717.29	-111.046
				2717.29	-111.046
				2718.75	-106.127
				2718.75	-106.127
				2718.75	-106.127
				2720.21	-105.135
				2720.21	-105.135
				2720.21	-105.135
				2721.68	-109.052
				2721.68	-109.052
				2721.68	-109.052
		2723.14	-107.109	2723.14	-113.539
		2723.14	-113.539	2723.14	-113.539
				2723.14	-113.539
		2724.61	-111.261	2724.61	-115.683
		2724.61	-115.683	2724.61	-115.683
				2724.61	-115.683
				2726.07	-107.456
				2726.07	-107.456
				2726.07	-107.456
		2727.54	-113.504	2727.54	-119.063
		2727.54	-119.063	2727.54	-119.063
				2727.54	-119.063
		2729	-107.268	2729	-114.503
		2729	-114.503	2729	-114.503
				2729	-114.503
				2730.47	-107.971
				2730.47	-107.971
				2730.47	-107.971
				2731.93	-113.71
				2731.93	-113.71
				2731.93	-113.71
		2733.4	-104.216	2733.4	-114.324
		2733.4	-114.324	2733.4	-114.324
				2733.4	-114.324
				2734.86	-109.805
				2734.86	-109.805
				2734.86	-109.805
		2736.33	-114.656	2736.33	-116.15
		2736.33	-116.15	2736.33	-116.15
				2736.33	-116.15
		2737.79	-107.508	2737.79	-115.623
		2737.79	-115.623	2737.79	-115.623
				2737.79	-115.623
		2739.26	-108.337	2739.26	-115.363
		2739.26	-115.363	2739.26	-115.363
				2739.26	-115.363
		2740.72	-115.39	2740.72	-124.563
		2740.72	-124.563	2740.72	-124.563
				2740.72	-124.563
				2742.19	-105.543
				2742.19	-105.543
				2742.19	-105.543
				2743.65	-110.3
				2743.65	-110.3
				2743.65	-110.3
				2745.12	-110.956
				2745.12	-110.956
				2745.12	-110.956
		2746.58	-110.863	2746.58	-116.046
		2746.58	-116.046	2746.58	-116.046
				2746.58	-116.046
		2748.05	-109.649	2748.05	-115.648
		2748.05	-115.648	2748.05	-115.648
				2748.05	-115.648
				2749.51	-112.489
				2749.51	-112.489
				2749.51	-112.489
		2750.98	-110.944	2750.98	-112.714
		2750.98	-112.714	2750.98	-112.714
				2750.98	-112.714
		2752.44	-108.475	2752.44	-111.359
		2752.44	-111.359	2752.44	-111.359
				2752.44	-111.359
		2753.91	-107.549	2753.91	-110.963
		2753.91	-110.963	2753.91	-110.963
				2753.91	-110.963
		2755.37	-104.962	2755.37	-115.858
		2755.37	-115.858	2755.37	-115.858
				2755.37	-115.858
		2756.84	-105.519	2756.84	-126.147
		2756.84	-126.147	2756.84	-126.147
				2756.84	-126.147
		2758.3	-107.148	2758.3	-121.493
		2758.3	-121.493	2758.3	-121.493
				2758.3	-121.493
				2759.77	-112.795
				2759.77	-112.795
				2759.77	-112.795
				2761.23	-106.393
				2761.23	-106.393
				2761.23	-106.393
				2762.7	-105.064
				2762.7	-105.064
				2762.7	-105.064
				2764.16	-116.554
				2764.16	-116.554
				2764.16	-116.554
				2765.63	-110.213
				2765.63	-110.213
				2765.63	-110.213
				2767.09	-109.558
				2767.09	-109.558
				2767.09	-109.558
		2768.55	-104.017	2768.55	-109.758
		2768.55	-109.758	2768.55	-109.758
				2768.55	-109.758
				2770.02	-106.496
				2770.02	-106.496
				2770.02	-106.496
				2771.48	-114.875
				2771.48	-114.875
				2771.48	-114.875
		2772.95	-107.167	2772.95	-108.813
		2772.95	-108.813	2772.95	-108.813
				2772.95	-108.813
				2774.41	-107.612
				2774.41	-107.612
				2774.41	-107.612
				2775.88	-107.02
				2775.88	-107.02
				2775.88	-107.02
				2777.34	-108.497
				2777.34	-108.497
				2777.34	-108.497
				2778.81	-102.467
				2778.81	-102.467
				2778.81	-102.467
		2780.27	-111.067	2780.27	-126.493
		2780.27	-126.493	2780.27	-126.493
				2780.27	-126.493
				2781.74	-111.954
				2781.74	-111.954
				2781.74	-111.954
				2783.2	-111.492
				2783.2	-111.492
				2783.2	-111.492
				2784.67	-110.677
				2784.67	-110.677
				2784.67	-110.677
				2786.13	-104.888
				2786.13	-104.888
				2786.13	-104.888
		2787.6	-102.819	2787.6	-131.414
		2787.6	-131.414	2787.6	-131.414
				2787.6	-131.414
		2789.06	-107.126	2789.06	-112.135
		2789.06	-112.135	2789.06	-112.135
				2789.06	-112.135
		2790.53	-109.188	2790.53	-115.635
		2790.53	-115.635	2790.53	-115.635
				2790.53	-115.635
		2791.99	-106.596	2791.99	-119.352
		2791.99	-119.352	2791.99	-119.352
				2791.99	-119.352
				2793.46	-105.127
				2793.46	-105.127
				2793.46	-105.127
				2794.92	-110.502
				2794.92	-110.502
				2794.92	-110.502
		2796.39	-104.611	2796.39	-116.822
		2796.39	-116.822	2796.39	-116.822
				2796.39	-116.822
		2797.85	-110.497	2797.85	-114.114
		2797.85	-114.114	2797.85	-114.114
				2797.85	-114.114
		2799.32	-108.858	2799.32	-122.707
		2799.32	-122.707	2799.32	-122.707
				2799.32	-122.707
				2800.78	-109.989
				2800.78	-109.989
				2800.78	-109.989
		2802.25	-106.354	2802.25	-110.862
		2802.25	-110.862	2802.25	-110.862
				2802.25	-110.862
				2803.71	-118.03
				2803.71	-118.03
				2803.71	-118.03
				2805.18	-106.726
				2805.18	-106.726
				2805.18	-106.726
				2806.64	-110.052
				2806.64	-110.052
				2806.64	-110.052
		2808.11	-107.928	2808.11	-111.57
		2808.11	-111.57	2808.11	-111.57
				2808.11	-111.57
		2809.57	-105.474	2809.57	-109.339
		2809.57	-109.339	2809.57	-109.339
				2809.57	-109.339
		2811.04	-104.185	2811.04	-111.043
		2811.04	-111.043	2811.04	-111.043
				2811.04	-111.043
		2812.5	-104.469	2812.5	-139.187
		2812.5	-139.187	2812.5	-139.187
				2812.5	-139.187
		2813.96	-113.486	2813.96	-116.608
		2813.96	-116.608	2813.96	-116.608
				2813.96	-116.608
				2815.43	-110.919
				2815.43	-110.919
				2815.43	-110.919
		2816.89	-105.503	2816.89	-115.731
		2816.89	-115.731	2816.89	-115.731
				2816.89	-115.731
		2818.36	-110.35	2818.36	-115.641
		2818.36	-115.641	2818.36	-115.641
				2818.36	-115.641
		2819.82	-104.227	2819.82	-110.261
		2819.82	-110.261	2819.82	-110.261
				2819.82	-110.261
		2821.29	-118.42	2821.29	-135.11
		2821.29	-135.11	2821.29	-135.11
				2821.29	-135.11
				2822.75	-109.161
				2822.75	-109.161
				2822.75	-109.161
		2824.22	-109.712	2824.22	-111.401
		2824.22	-111.401	2824.22	-111.401
				2824.22	-111.401
		2825.68	-105.943	2825.68	-109.281
		2825.68	-109.281	2825.68	-109.281
				2825.68	-109.281
				2827.15	-104.156
				2827.15	-104.156
				2827.15	-104.156
		2828.61	-113.527	2828.61	-117.031
		2828.61	-117.031	2828.61	-117.031
				2828.61	-117.031
		2830.08	-126.488	2830.08	-133.31
		2830.08	-133.31	2830.08	-133.31
				2830.08	-133.31
		2831.54	-109.834	2831.54	-116.694
		2831.54	-116.694	2831.54	-116.694
				2831.54	-116.694
		2833.01	-105.574	2833.01	-115.213
		2833.01	-115.213	2833.01	-115.213
				2833.01	-115.213
		2834.47	-111.576	2834.47	-129.655
		2834.47	-129.655	2834.47	-129.655
				2834.47	-129.655
				2835.94	-108.03
				2835.94	-108.03
				2835.94	-108.03
				2837.4	-111.645
				2837.4	-111.645
				2837.4	-111.645
		2838.87	-108.102	2838.87	-114.165
		2838.87	-114.165	2838.87	-114.165
				2838.87	-114.165
				2840.33	-104.117
				2840.33	-104.117
				2840.33	-104.117
		2841.8	-104.619	2841.8	-119.44
		2841.8	-119.44	2841.8	-119.44
				2841.8	-119.44
				2843.26	-107.786
				2843.26	-107.786
				2843.26	-107.786
		2844.73	-104.366	2844.73	-106.306
		2844.73	-106.306	2844.73	-106.306
				2844.73	-106.306
				2846.19	-105.797
				2846.19	-105.797
				2846.19	-105.797
				2847.66	-103.342
				2847.66	-103.342
				2847.66	-103.342
		2849.12	-109.528	2849.12	-112.776
		2849.12	-112.776	2849.12	-112.776
				2849.12	-112.776
		2850.59	-106.177	2850.59	-125.191
		2850.59	-125.191	2850.59	-125.191
				2850.59	-125.191
		2852.05	-101.411	2852.05	-113.835
		2852.05	-113.835	2852.05	-113.835
				2852.05	-113.835
		2853.52	-110.458	2853.52	-111.666
		2853.52	-111.666	2853.52	-111.666
				2853.52	-111.666
		2854.98	-108.764	2854.98	-113.524
		2854.98	-113.524	2854.98	-113.524
				2854.98	-113.524
				2856.45	-109.304
				2856.45	-109.304
				2856.45	-109.304
		2857.91	-109.736	2857.91	-112.435
		2857.91	-112.435	2857.91	-112.435
				2857.91	-112.435
		2859.38	-110.749	2859.38	-113.077
		2859.38	-113.077	2859.38	-113.077
				2859.38	-113.077
		2860.84	-104.648	2860.84	-110.137
		2860.84	-110.137	2860.84	-110.137
				2860.84	-110.137
				2862.3	-102.134
				2862.3	-102.134
				2862.3	-102.134
		2863.77	-111.119	2863.77	-115.635
		2863.77	-115.635	2863.77	-115.635
				2863.77	-115.635
		2865.23	-110.548	2865.23	-115.088
		2865.23	-115.088	2865.23	-115.088
				2865.23	-115.088
				2866.7	-105.751
				2866.7	-105.751
				2866.7	-105.751
				2868.16	-102.562
				2868.16	-102.562
				2868.16	-102.562
		2869.63	-111.47	2869.63	-112.863
		2869.63	-112.863	2869.63	-112.863
				2869.63	-112.863
				2871.09	-110.042
				2871.09	-110.042
				2871.09	-110.042
				2872.56	-105.695
				2872.56	-105.695
				2872.56	-105.695
				2874.02	-107.502
				2874.02	-107.502
				2874.02	-107.502
				2875.49	-107.591
				2875.49	-107.591
				2875.49	-107.591
		2876.95	-106.772	2876.95	-108.987
		2876.95	-108.987	2876.95	-108.987
				2876.95	-108.987
				2878.42	-108.974
				2878.42	-108.974
				2878.42	-108.974
		2879.88	-104.588	2879.88	-118.437
		2879.88	-118.437	2879.88	-118.437
				2879.88	-118.437
		2881.35	-109.356	2881.35	-113.642
		2881.35	-113.642	2881.35	-113.642
				2881.35	-113.642
				2882.81	-107.977
				2882.81	-107.977
				2882.81	-107.977
				2884.28	-115.63
				2884.28	-115.63
				2884.28	-115.63
		2885.74	-111.223	2885.74	-119.413
		2885.74	-119.413	2885.74	-119.413
				2885.74	-119.413
		2887.21	-105.376	2887.21	-106.596
		2887.21	-106.596	2887.21	-106.596
				2887.21	-106.596
				2888.67	-116.05
				2888.67	-116.05
				2888.67	-116.05
		2890.14	-102.515	2890.14	-109.721
		2890.14	-109.721	2890.14	-109.721
				2890.14	-109.721
				2891.6	-106.843
				2891.6	-106.843
				2891.6	-106.843
				2893.07	-111.395
				2893.07	-111.395
				2893.07	-111.395
				2894.53	-106.233
				2894.53	-106.233
				2894.53	-106.233
				2896	-110.889
				2896	-110.889
				2896	-110.889
				2897.46	-114.49
				2897.46	-114.49
				2897.46	-114.49
		2898.93	-109.289	2898.93	-115.97
		2898.93	-115.97	2898.93	-115.97
				2898.93	-115.97
		2900.39	-112.914	2900.39	-121.502
		2900.39	-121.502	2900.39	-121.502
				2900.39	-121.502
		2901.86	-105.036	2901.86	-106.664
		2901.86	-106.664	2901.86	-106.664
				2901.86	-106.664
		2903.32	-104.939	2903.32	-108.452
		2903.32	-108.452	2903.32	-108.452
				2903.32	-108.452
		2904.79	-107.906	2904.79	-109.337
		2904.79	-109.337	2904.79	-109.337
				2904.79	-109.337
				2906.25	-110.25
				2906.25	-110.25
				2906.25	-110.25
		2907.71	-107.123	2907.71	-113.921
		2907.71	-113.921	2907.71	-113.921
				2907.71	-113.921
				2909.18	-108.674
				2909.18	-108.674
				2909.18	-108.674
		2910.64	-104.474	2910.64	-111.258
		2910.64	-111.258	2910.64	-111.258
				2910.64	-111.258
				2912.11	-107.276
				2912.11	-107.276
				2912.11	-107.276
				2913.57	-106.353
				2913.57	-106.353
				2913.57	-106.353
				2915.04	-104.486
				2915.04	-104.486
				2915.04	-104.486
				2916.5	-105.936
				2916.5	-105.936
				2916.5	-105.936
				2917.97	-107.525
				2917.97	-107.525
				2917.97	-107.525
		2919.43	-103.374	2919.43	-112.013
		2919.43	-112.013	2919.43	-112.013
				2919.43	-112.013
				2920.9	-109.675
				2920.9	-109.675
				2920.9	-109.675
		2922.36	-103.052	2922.36	-112.212
		2922.36	-112.212	2922.36	-112.212
				2922.36	-112.212
				2923.83	-109.079
				2923.83	-109.079
				2923.83	-109.079
		2925.29	-107.185	2925.29	-111.706
		2925.29	-111.706	2925.29	-111.706
				2925.29	-111.706
		2926.76	-107.025	2926.76	-114.883
		2926.76	-114.883	2926.76	-114.883
				2926.76	-114.883
		2928.22	-108.625	2928.22	-123.792
		2928.22	-123.792	2928.22	-123.792
				2928.22	-123.792
		2929.69	-110.776	2929.69	-111.885
		2929.69	-111.885	2929.69	-111.885
				2929.69	-111.885
		2931.15	-109.563	2931.15	-110.873
		2931.15	-110.873	2931.15	-110.873
				2931.15	-110.873
				2932.62	-107.187
				2932.62	-107.187
				2932.62	-107.187
				2934.08	-107.805
				2934.08	-107.805
				2934.08	-107.805
				2935.55	-107.841
				2935.55	-107.841
				2935.55	-107.841
				2937.01	-107.174
				2937.01	-107.174
				2937.01	-107.174
		2938.48	-103.694	2938.48	-111.055
		2938.48	-111.055	2938.48	-111.055
				2938.48	-111.055
				2939.94	-109.221
				2939.94	-109.221
				2939.94	-109.221
				2941.41	-103.964
				2941.41	-103.964
				2941.41	-103.964
		2942.87	-110.849	2942.87	-116.791
		2942.87	-116.791	2942.87	-116.791
				2942.87	-116.791
				2944.34	-108.303
				2944.34	-108.303
				2944.34	-108.303
				2945.8	-113.21
				2945.8	-113.21
				2945.8	-113.21
				2947.27	-107.51
				2947.27	-107.51
				2947.27	-107.51
		2948.73	-103.418	2948.73	-113.084
		2948.73	-113.084	2948.73	-113.084
				2948.73	-113.084
				2950.2	-107.251
				2950.2	-107.251
				2950.2	-107.251
		2951.66	-102.879	2951.66	-117.973
		2951.66	-117.973	2951.66	-117.973
				2951.66	-117.973
		2953.13	-112.498	2953.13	-114.329
		2953.13	-114.329	2953.13	-114.329
				2953.13	-114.329
		2954.59	-109.69	2954.59	-118.206
		2954.59	-118.206	2954.59	-118.206
				2954.59	-118.206
		2956.05	-107.878	2956.05	-110.298
		2956.05	-110.298	2956.05	-110.298
				2956.05	-110.298
				2957.52	-106.635
				2957.52	-106.635
				2957.52	-106.635
				2958.98	-112.96
				2958.98	-112.96
				2958.98	-112.96
				2960.45	-105.691
				2960.45	-105.691
				2960.45	-105.691
				2961.91	-119.082
				2961.91	-119.082
				2961.91	-119.082
				2963.38	-107.472
				2963.38	-107.472
				2963.38	-107.472
				2964.84	-108.539
				2964.84	-108.539
				2964.84	-108.539
				2966.31	-104.031
				2966.31	-104.031
				2966.31	-104.031
				2967.77	-102.194
				2967.77	-102.194
				2967.77	-102.194
		2969.24	-114.24	2969.24	-119.012
		2969.24	-119.012	2969.24	-119.012
				2969.24	-119.012
				2970.7	-120.349
				2970.7	-120.349
				2970.7	-120.349
		2972.17	-109.196	2972.17	-113.223
		2972.17	-113.223	2972.17	-113.223
				2972.17	-113.223
				2973.63	-110.051
				2973.63	-110.051
				2973.63	-110.051
		2975.1	-107.719	2975.1	-108.841
		2975.1	-108.841	2975.1	-108.841
				2975.1	-108.841
				2976.56	-117.04
				2976.56	-117.04
				2976.56	-117.04
				2978.03	-111.069
				2978.03	-111.069
				2978.03	-111.069
				2979.49	-113.961
				2979.49	-113.961
				2979.49	-113.961
				2980.96	-103.515
				2980.96	-103.515
				2980.96	-103.515
		2982.42	-103.657	2982.42	-111.023
		2982.42	-111.023	2982.42	-111.023
				2982.42	-111.023
		2983.89	-111.963	2983.89	-114.286
		2983.89	-114.286	2983.89	-114.286
				2983.89	-114.286
				2985.35	-106.763
				2985.35	-106.763
				2985.35	-106.763
		2986.82	-108.887	2986.82	-110.227
		2986.82	-110.227	2986.82	-110.227
				2986.82	-110.227
		2988.28	-104.764	2988.28	-106.681
		2988.28	-106.681	2988.28	-106.681
				2988.28	-106.681
		2989.75	-116.528	2989.75	-121.479
		2989.75	-121.479	2989.75	-121.479
				2989.75	-121.479
		2991.21	-110.246	2991.21	-119.71
		2991.21	-119.71	2991.21	-119.71
				2991.21	-119.71
		2992.68	-109.744	2992.68	-113.776
		2992.68	-113.776	2992.68	-113.776
				2992.68	-113.776
				2994.14	-108.709
				2994.14	-108.709
				2994.14	-108.709
				2995.61	-109.557
				2995.61	-109.557
				2995.61	-109.557
		2997.07	-105.422	2997.07	-120.683
		2997.07	-120.683	2997.07	-120.683
				2997.07	-120.683
				2998.54	-104.228
				2998.54	-104.228
				2998.54	-104.228
